T,Magnetization,Total Energy
1.4,0.2,-578
1.4,0.1264,-650
1.4,0.088,-538
1.4,0.2608,-646
1.4,0.136,-530
1.4,0.2992,-618
1.4,0.0944,-582
1.4,0.008,-502
1.4,0.3248,-586
1.4,0.0016,-470
1.4,0.1936,-546
1.4,0.2416,-542
1.4,0.0944,-570
1.4,0.1968,-530
1.4,0.0464,-558
1.4,0.0592,-578
1.4,0.056,-578
1.4,0.4144,-626
1.4,0.2992,-666
1.4,0.1872,-538
1.4,0.0944,-522
1.4,0.0496,-438
1.4,0.0592,-586
1.4,0.2608,-594
1.4,0.2896,-618
1.4,0.0592,-514
1.4,0.1296,-638
1.4,0.2064,-590
1.4,0.1296,-590
1.4,0.0784,-614
1.4,0.1968,-562
1.4,0.2448,-626
1.4,0.3152,-638
1.4,0.0144,-542
1.4,0.0304,-566
1.4,0.1296,-562
1.4,0.36,-550
1.4,0.1392,-594
1.4,0.0528,-594
1.4,0.2384,-622
1.4,0.1136,-606
1.4,0.056,-582
1.4,0.0208,-626
1.4,0.0272,-518
1.4,0.3152,-626
1.4,0.2512,-542
1.4,0.2,-534
1.4,0.2992,-582
1.4,0.1296,-574
1.4,0.2224,-630
1.4,0.008,-514
1.4,0.2096,-550
1.4,0.1136,-558
1.4,0.1776,-586
1.4,0.4368,-570
1.4,0.1104,-606
1.4,0.2352,-618
1.4,0.0688,-514
1.4,0.2096,-594
1.4,0.1488,-538
1.4,0.4048,-618
1.4,0.1392,-586
1.4,0.152,-458
1.4,0.1776,-630
1.4,0.1392,-654
1.4,0.1136,-562
1.4,0.3696,-566
1.4,0.1328,-550
1.4,0.1744,-570
1.4,0.0208,-522
1.4,0.2576,-618
1.4,0.1712,-494
1.4,0.3216,-654
1.4,0.216,-602
1.4,0.184,-554
1.4,0.1552,-558
1.4,0.4144,-674
1.4,0.2,-574
1.4,0.1872,-582
1.4,0.0496,-526
1.4,0.0144,-514
1.4,0.1552,-530
1.4,0.0752,-646
1.4,0.0048,-554
1.4,0.0304,-542
1.4,0.2576,-606
1.4,0.12,-470
1.4,0.0336,-534
1.4,0.04,-566
1.4,0.184,-522
1.4,0.168,-534
1.4,0.0304,-602
1.4,0.1232,-558
1.4,0.1456,-530
1.4,0.0176,-550
1.4,0.1872,-630
1.4,0.1296,-542
1.4,0.2032,-570
1.4,0.0496,-554
1.4,0.2448,-574
1.4,0.264,-618
1.4,0.0496,-542
1.4,0.4016,-642
1.4,0.2448,-566
1.4,0.0496,-502
1.4,0.2416,-510
1.4,0.104,-570
1.4,0.2224,-502
1.4,0.1552,-542
1.4,0.1136,-530
1.4,0.1776,-546
1.4,0.2032,-614
1.4,0.2576,-590
1.4,0.0464,-606
1.4,0.008,-582
1.4,0.0144,-594
1.4,0.3248,-626
1.4,0.0656,-586
1.4,0.1008,-614
1.4,0.1104,-594
1.4,0.0816,-534
1.4,0.136,-554
1.4,0.0784,-590
1.4,0.0208,-594
1.4,0.0272,-594
1.4,0.0912,-606
1.4,0.2032,-606
1.4,0.0016,-622
1.4,0.3312,-654
1.4,0.0144,-558
1.4,0.1168,-514
1.4,0.04,-482
1.4,0.0656,-514
1.4,0.2704,-610
1.4,0.1808,-598
1.4,0.0208,-610
1.4,0.0624,-586
1.4,0.0048,-526
1.4,0.1136,-526
1.4,0.0464,-514
1.4,0.0144,-486
1.4,0.1616,-582
1.4,0.2608,-582
1.4,0.0304,-550
1.4,0.0688,-562
1.4,0.3664,-622
1.4,0.0432,-542
1.4,0.3408,-726
1.4,0.2608,-518
1.4,0.3472,-666
1.4,0.1776,-542
1.4,0.04,-510
1.4,0.0752,-618
1.4,0.1424,-546
1.4,0.5104,-682
1.4,0.0432,-446
1.4,0.008,-506
1.4,0.1968,-566
1.4,0.0528,-550
1.4,0.0336,-562
1.4,0.1168,-594
1.4,0.0464,-574
1.4,0.0752,-586
1.4,0.36,-666
1.4,0.0272,-590
1.4,0.0208,-642
1.4,0.1712,-622
1.4,0.1616,-546
1.4,0.152,-582
1.4,0.0016,-570
1.4,0.1168,-530
1.4,0.0848,-526
1.4,0.04,-574
1.4,0.3792,-574
1.4,0.1008,-554
1.4,0.296,-598
1.4,0.1456,-534
1.4,0.136,-610
1.4,0.0144,-630
1.4,0.2928,-486
1.4,0.2608,-646
1.4,0.1072,-510
1.4,0.36,-698
1.4,0.1936,-598
1.4,0.136,-558
1.4,0.3376,-626
1.4,0.2032,-538
1.4,0.1424,-646
1.4,0.1872,-534
1.4,0.0176,-594
1.4,0.2224,-574
1.4,0.3024,-538
1.4,0.2704,-534
1.4,0.1648,-586
1.4,0.2032,-558
1.4,0.0464,-514
1.4,0.024,-598
1.4,0.0208,-578
1.4,0.0432,-714
1.4,0.312,-558
1.4,0.296,-598
1.4,0.168,-538
1.4,0.1296,-598
1.4,0.0176,-626
1.4,0.248,-578
1.4,0.0432,-590
1.4,0.0624,-534
1.4,0.2096,-554
1.4,0.1648,-554
1.4,0.0336,-642
1.4,0.0656,-494
1.4,0.3184,-726
1.4,0.1488,-514
1.4,0.0912,-590
1.4,0.1872,-602
1.4,0.1936,-518
1.4,0.04,-622
1.4,0.2896,-590
1.4,0.2832,-642
1.4,0.0144,-626
1.4,0.216,-602
1.4,0.0816,-566
1.4,0.008,-546
1.4,0.1712,-590
1.4,0.0464,-586
1.4,0.0304,-554
1.4,0.2416,-582
1.4,0.0208,-538
1.4,0.0016,-490
1.4,0.1232,-510
1.4,0.2352,-562
1.4,0.1008,-638
1.4,0.12,-574
1.4,0.0144,-534
1.4,0.1456,-550
1.4,0.088,-594
1.4,0.0464,-450
1.4,0.1104,-578
1.4,0.0144,-602
1.4,0.3312,-686
1.4,0.248,-534
1.4,0.2096,-586
1.4,0.0784,-594
1.4,0.1488,-494
1.4,0.1104,-526
1.4,0.1456,-542
1.4,0.1168,-554
1.4,0.216,-690
1.4,0.0496,-570
1.4,0.0272,-534
1.4,0.1584,-610
1.4,0.0016,-510
1.4,0.248,-558
1.4,0.0432,-626
1.4,0.2512,-582
1.4,0.1328,-458
1.4,0.0912,-562
1.4,0.0912,-630
1.4,0.1072,-546
1.4,0.1552,-590
1.4,0.12,-542
1.4,0.0016,-586
1.4,0.2672,-634
1.4,0.0144,-550
1.4,0.1264,-622
1.4,0.072,-622
1.4,0.0304,-534
1.4,0.3312,-570
1.4,0.0816,-534
1.4,0.0752,-542
1.4,0.072,-470
1.4,0.0528,-646
1.4,0.2896,-654
1.4,0.3568,-654
1.4,0.0112,-546
1.4,0.136,-610
1.4,0.0048,-502
1.4,0.1776,-566
1.4,0.0464,-626
1.4,0.1392,-694
1.4,0.3792,-578
1.4,0.0464,-566
1.4,0.168,-542
1.4,0.1104,-526
1.4,0.0208,-482
1.4,0.072,-642
1.4,0.3792,-618
1.4,0.0464,-590
1.4,0.0624,-478
1.4,0.1872,-534
1.4,0.0752,-562
1.4,0.0432,-550
1.4,0.1872,-538
1.4,0.0688,-550
1.4,0.1072,-526
1.4,0.008,-526
1.4,0.1936,-558
1.4,0.1072,-638
1.4,0.0336,-510
1.4,0.2224,-518
1.4,0.008,-574
1.4,0.0624,-594
1.4,0.1744,-550
1.4,0.0944,-606
1.4,0.2064,-522
1.4,0.4752,-666
1.4,0.0528,-502
1.4,0.1872,-570
1.4,0.0848,-582
1.4,0.1072,-594
1.4,0.0496,-510
1.4,0.0848,-594
1.4,0.1104,-618
1.4,0.0688,-554
1.4,0.0784,-542
1.4,0.168,-622
1.4,0.0592,-518
1.4,0.1392,-518
1.4,0.1456,-538
1.4,0.3664,-562
1.4,0.1104,-574
1.4,0.0208,-418
1.4,0.2032,-554
1.4,0.0464,-558
1.4,0.0048,-510
1.4,0.1456,-618
1.4,0.1072,-478
1.4,0.0976,-538
1.4,0.2352,-558
1.4,0.2448,-658
1.4,0.2416,-510
1.4,0.4144,-626
1.4,0.0016,-522
1.4,0.0176,-522
1.4,0.0304,-598
1.4,0.0496,-530
1.4,0.1232,-534
1.4,0.1488,-482
1.4,0.264,-562
1.4,0.0592,-602
1.4,0.1008,-594
1.4,0.0272,-626
1.4,0.12,-526
1.4,0.1072,-514
1.4,0.12,-602
1.4,0.072,-606
1.4,0.04,-542
1.4,0.0464,-538
1.4,0.0848,-490
1.4,0.1552,-506
1.4,0.1392,-598
1.4,0.1264,-586
1.4,0.1392,-618
1.4,0.024,-490
1.4,0.1808,-550
1.4,0.0208,-526
1.4,0.1456,-534
1.4,0.1904,-602
1.4,0.2384,-546
1.4,0.088,-598
1.4,0.088,-602
1.4,0.0592,-554
1.4,0.0688,-678
1.4,0.2352,-610
1.4,0.1648,-546
1.4,0.0784,-566
1.4,0.1104,-538
1.4,0.0688,-530
1.4,0.0656,-490
1.4,0.056,-554
1.4,0.1168,-582
1.4,0.0208,-570
1.4,0.0176,-462
1.4,0.2448,-570
1.4,0.1616,-606
1.4,0.0016,-594
1.4,0.3664,-562
1.4,0.1648,-530
1.4,0.12,-670
1.4,0.0368,-558
1.4,0.0464,-550
1.4,0.0816,-586
1.4,0.0496,-518
1.4,0.3504,-514
1.4,0.0944,-618
1.4,0.1328,-518
1.4,0.0592,-674
1.4,0.0144,-498
1.4,0.1072,-618
1.4,0.072,-598
1.4,0.1392,-518
1.4,0.0752,-558
1.4,0.1584,-538
1.4,0.04,-618
1.4,0.0688,-518
1.4,0.2512,-538
1.4,0.0304,-558
1.4,0.0592,-482
1.4,0.0816,-558
1.4,0.1424,-522
1.4,0.0464,-550
1.4,0.2,-542
1.4,0.136,-566
1.4,0.0944,-490
1.4,0.0464,-606
1.4,0.152,-546
1.4,0.0144,-566
1.4,0.0144,-646
1.4,0.0144,-554
1.4,0.1968,-610
1.4,0.28,-518
1.4,0.0688,-554
1.4,0.0688,-530
1.4,0.024,-606
1.4,0.0176,-606
1.4,0.1328,-502
1.4,0.104,-598
1.4,0.1232,-502
1.4,0.056,-546
1.4,0.28,-590
1.4,0.2032,-566
1.4,0.1808,-514
1.4,0.1232,-614
1.4,0.2224,-542
1.4,0.1008,-550
1.4,0.104,-602
1.4,0.2128,-546
1.4,0.2384,-566
1.4,0.0432,-574
1.4,0.072,-582
1.4,0.1328,-522
1.4,0.2608,-606
1.4,0.0432,-490
1.4,0.0624,-530
1.4,0.0208,-542
1.4,0.0592,-550
1.4,0.1584,-518
1.4,0.2544,-610
1.4,0.008,-566
1.4,0.0624,-650
1.4,0.0048,-542
1.4,0.1808,-642
1.4,0.12,-542
1.4,0.1424,-610
1.4,0.1328,-562
1.4,0.0496,-514
1.4,0.1584,-562
1.4,0.0304,-566
1.4,0.2704,-546
1.4,0.152,-526
1.4,0.0272,-486
1.4,0.4272,-614
1.4,0.0784,-578
1.4,0.0464,-534
1.4,0.1808,-542
1.4,0.1872,-658
1.4,0.36,-598
1.4,0.1296,-510
1.4,0.1168,-514
1.4,0.0944,-618
1.4,0.0752,-502
1.4,0.0944,-538
1.4,0.2672,-638
1.4,0.1456,-598
1.4,0.1264,-530
1.4,0.1584,-566
1.4,0.04,-550
1.4,0.0016,-534
1.4,0.1712,-506
1.4,0.0784,-494
1.4,0.0592,-658
1.4,0.12,-542
1.4,0.0208,-518
1.4,0.1104,-558
1.4,0.072,-570
1.4,0.104,-526
1.4,0.0656,-554
1.4,0.0464,-614
1.4,0.2288,-594
1.4,0.1296,-614
1.4,0.0432,-546
1.4,0.1424,-546
1.4,0.056,-570
1.4,0.056,-558
1.4,0.2064,-554
1.4,0.0336,-542
1.4,0.056,-490
1.4,0.1104,-498
1.4,0.3376,-538
1.4,0.072,-590
1.4,0.0816,-554
1.4,0.2768,-586
1.4,0.2448,-550
1.4,0.3824,-606
1.4,0.0304,-522
1.4,0.104,-514
1.4,0.0496,-570
1.4,0.1328,-522
1.4,0.2288,-586
1.4,0.0304,-526
1.4,0.104,-570
1.4,0.1584,-526
1.4,0.2448,-594
1.4,0.1776,-522
1.4,0.2128,-614
1.4,0.0368,-582
1.4,0.3216,-606
1.4,0.1104,-546
1.4,0.008,-582
1.4,0.1648,-546
1.4,0.0688,-730
1.4,0.0464,-490
1.4,0.104,-586
1.4,0.1264,-546
1.4,0.04,-598
1.4,0.1968,-578
1.4,0.0624,-574
1.4,0.2576,-546
1.4,0.024,-570
1.4,0.1232,-526
1.4,0.2768,-618
1.4,0.0528,-562
1.4,0.1008,-562
1.4,0.0592,-482
1.4,0.04,-674
1.4,0.0368,-662
1.4,0.1072,-590
1.4,0.168,-602
1.4,0.0816,-598
1.4,0.1776,-542
1.4,0.2064,-494
1.4,0.0592,-594
1.4,0.072,-610
1.4,0.0208,-554
1.4,0.1424,-546
1.4,0.1104,-498
1.4,0.0048,-518
1.4,0.1584,-530
1.4,0.088,-630
1.4,0.2736,-554
1.4,0.0144,-618
1.4,0.3056,-618
1.4,0.0048,-558
1.4,0.1392,-498
1.4,0.0592,-598
1.4,0.1808,-514
1.4,0.0048,-534
1.4,0.152,-554
1.4,0.0272,-538
1.4,0.3344,-642
1.4,0.0144,-546
1.4,0.1008,-426
1.4,0.1776,-614
1.4,0.1296,-602
1.4,0.312,-542
1.4,0.056,-606
1.4,0.0752,-594
1.4,0.1712,-538
1.4,0.0112,-554
1.4,0.0336,-550
1.4,0.3568,-686
1.4,0.1936,-570
1.4,0.1104,-522
1.4,0.0528,-550
1.4,0.3408,-598
1.4,0.1008,-570
1.4,0.0144,-494
1.4,0.3088,-574
1.4,0.0976,-558
1.4,0.056,-634
1.4,0.3472,-678
1.4,0.2,-502
1.4,0.0528,-554
1.4,0.1296,-542
1.4,0.0784,-502
1.4,0.1392,-590
1.4,0.0176,-606
1.4,0.1936,-530
1.4,0.0496,-642
1.4,0.232,-622
1.4,0.1456,-546
1.4,0.0912,-514
1.4,0.2736,-550
1.4,0.0688,-522
1.4,0.2032,-618
1.4,0.264,-594
1.4,0.216,-574
1.4,0.2384,-626
1.4,0.04,-514
1.4,0.0016,-490
1.4,0.0272,-558
1.4,0.1936,-594
1.4,0.2064,-666
1.4,0.1936,-594
1.4,0.0976,-502
1.4,0.0528,-562
1.4,0.0528,-618
1.4,0.0016,-602
1.4,0.0496,-582
1.4,0.1232,-498
1.4,0.0592,-654
1.4,0.248,-630
1.4,0.1072,-618
1.4,0.0624,-574
1.4,0.2032,-650
1.4,0.0688,-594
1.4,0.0528,-430
1.4,0.0048,-598
1.4,0.3408,-626
1.4,0.0848,-574
1.4,0.2512,-634
1.4,0.0944,-510
1.4,0.0112,-582
1.4,0.3216,-618
1.4,0.0176,-570
1.4,0.0976,-582
1.4,0.1456,-630
1.4,0.056,-562
1.4,0.2288,-590
1.4,0.0176,-470
1.4,0.072,-566
1.4,0.0912,-534
1.4,0.088,-550
1.4,0.3088,-510
1.4,0.0432,-498
1.4,0.2192,-602
1.4,0.2544,-606
1.4,0.0848,-494
1.4,0.2608,-578
1.4,0.232,-574
1.4,0.1936,-594
1.4,0.2192,-602
1.4,0.008,-626
1.4,0.2544,-578
1.4,0.1424,-546
1.4,0.0336,-514
1.4,0.3664,-686
1.4,0.3792,-598
1.4,0.152,-510
1.4,0.104,-570
1.4,0.0656,-430
1.4,0.3088,-622
1.4,0.0528,-582
1.4,0.0848,-642
1.4,0.2032,-622
1.4,0.072,-594
1.4,0.104,-582
1.4,0.1328,-618
1.4,0.1296,-546
1.4,0.1968,-614
1.4,0.1776,-502
1.4,0.1744,-638
1.4,0.0496,-534
1.4,0.1232,-518
1.4,0.056,-694
1.4,0.0272,-586
1.4,0.0144,-518
1.4,0.0144,-542
1.4,0.0976,-562
1.4,0.2352,-618
1.4,0.0816,-602
1.4,0.0944,-698
1.4,0.024,-634
1.4,0.0368,-470
1.4,0.1264,-606
1.4,0.1744,-486
1.4,0.3088,-626
1.4,0.088,-610
1.4,0.008,-514
1.4,0.2,-602
1.4,0.0176,-598
1.4,0.104,-546
1.4,0.0368,-626
1.4,0.2288,-618
1.4,0.0848,-502
1.4,0.0016,-618
1.4,0.3088,-638
1.4,0.1328,-558
1.4,0.2128,-470
1.4,0.0272,-590
1.4,0.088,-610
1.4,0.1008,-602
1.4,0.0272,-494
1.4,0.2064,-606
1.4,0.1136,-542
1.4,0.0368,-534
1.4,0.1744,-550
1.4,0.0432,-590
1.4,0.0432,-466
1.4,0.0304,-618
1.4,0.088,-546
1.4,0.2736,-594
1.4,0.2384,-498
1.4,0.1136,-586
1.4,0.216,-562
1.4,0.088,-486
1.4,0.0336,-578
1.4,0.1872,-582
1.4,0.0272,-582
1.4,0.1936,-518
1.4,0.1552,-570
1.4,0.0784,-622
1.4,0.0144,-630
1.4,0.0848,-558
1.4,0.0368,-490
1.4,0.0272,-578
1.4,0.136,-590
1.4,0.0112,-478
1.4,0.0688,-562
1.4,0.1232,-554
1.4,0.3504,-590
1.4,0.1136,-606
1.4,0.1104,-602
1.4,0.1168,-498
1.4,0.2576,-642
1.4,0.04,-618
1.4,0.0304,-522
1.4,0.024,-634
1.4,0.1712,-598
1.4,0.0656,-638
1.4,0.0368,-542
1.4,0.0336,-586
1.4,0.3408,-586
1.4,0.0464,-514
1.4,0.2768,-670
1.4,0.1648,-530
1.4,0.0496,-578
1.4,0.072,-562
1.4,0.1072,-642
1.4,0.0272,-626
1.4,0.0912,-466
1.4,0.04,-506
1.4,0.1616,-594
1.4,0.136,-558
1.4,0.3792,-578
1.4,0.1168,-570
1.4,0.0048,-558
1.4,0.2544,-502
1.4,0.1616,-514
1.4,0.1488,-502
1.4,0.0592,-602
1.4,0.0624,-642
1.4,0.2288,-630
1.4,0.0752,-578
1.4,0.024,-574
1.4,0.072,-590
1.4,0.1744,-554
1.4,0.008,-526
1.4,0.0208,-562
1.4,0.0976,-586
1.4,0.008,-578
1.4,0.008,-642
1.4,0.0688,-586
1.4,0.2512,-598
1.4,0.0848,-502
1.4,0.024,-478
1.4,0.184,-582
1.4,0.1168,-590
1.4,0.1744,-534
1.4,0.0272,-506
1.4,0.1904,-674
1.4,0.4784,-690
1.4,0.2064,-674
1.4,0.0496,-494
1.4,0.104,-506
1.4,0.2032,-498
1.4,0.056,-546
1.4,0.1424,-562
1.4,0.1936,-574
1.4,0.0848,-538
1.4,0.0368,-598
1.4,0.1296,-566
1.4,0.072,-530
1.4,0.1776,-538
1.4,0.1616,-550
1.4,0.0048,-574
1.4,0.0656,-606
1.4,0.1488,-458
1.4,0.2608,-554
1.4,0.2416,-518
1.4,0.2032,-574
1.4,0.0784,-582
1.4,0.0336,-554
1.4,0.1264,-522
1.4,0.088,-546
1.4,0.0048,-698
1.4,0.1136,-622
1.4,0.0912,-522
1.4,0.0944,-478
1.4,0.0304,-486
1.4,0.152,-582
1.4,0.1584,-602
1.4,0.0208,-510
1.4,0.0368,-594
1.4,0.2352,-586
1.4,0.2864,-666
1.4,0.2128,-598
1.4,0.1392,-542
1.4,0.0432,-546
1.4,0.1872,-638
1.4,0.12,-606
1.4,0.1424,-590
1.4,0.024,-502
1.4,0.2256,-614
1.4,0.1072,-614
1.4,0.0112,-622
1.4,0.1392,-510
1.4,0.1232,-606
1.4,0.2064,-590
1.4,0.0432,-502
1.4,0.2224,-602
1.4,0.0176,-562
1.4,0.1648,-570
1.4,0.008,-522
1.4,0.2672,-630
1.4,0.184,-554
1.4,0.0336,-498
1.4,0.0976,-534
1.4,0.056,-522
1.4,0.1328,-586
1.4,0.0176,-586
1.4,0.1328,-558
1.4,0.12,-526
1.4,0.28,-594
1.4,0.0624,-498
1.4,0.232,-650
1.4,0.2416,-562
1.4,0.3024,-618
1.4,0.0432,-514
1.4,0.0688,-570
1.4,0.1232,-546
1.4,0.0368,-510
1.4,0.0528,-554
1.4,0.136,-470
1.4,0.0592,-570
1.4,0.0752,-510
1.4,0.0624,-506
1.4,0.2096,-626
1.4,0.0592,-622
1.4,0.0432,-610
1.4,0.0816,-606
1.4,0.0528,-538
1.4,0.0944,-566
1.4,0.3824,-534
1.4,0.104,-586
1.4,0.1264,-558
1.4,0.3824,-570
1.4,0.1264,-626
1.4,0.248,-594
1.4,0.0176,-582
1.4,0.1936,-582
1.4,0.1104,-482
1.4,0.0112,-570
1.4,0.0944,-534
1.4,0.2928,-574
1.4,0.216,-530
1.4,0.2448,-622
1.4,0.344,-566
1.4,0.2352,-606
1.4,0.1936,-650
1.4,0.0336,-578
1.4,0.0016,-582
1.4,0.0784,-566
1.4,0.0304,-606
1.4,0.0688,-546
1.4,0.072,-598
1.4,0.0368,-646
1.4,0.0656,-558
1.4,0.216,-550
1.4,0.0464,-630
1.4,0.0112,-694
1.4,0.0368,-550
1.4,0.2,-614
1.4,0.1136,-550
1.4,0.0784,-534
1.4,0.1136,-502
1.4,0.2224,-562
1.4,0.216,-574
1.4,0.2256,-582
1.4,0.0528,-594
1.4,0.0528,-570
1.4,0.056,-538
1.4,0.1744,-570
1.4,0.0848,-506
1.4,0.1232,-510
1.4,0.2832,-582
1.4,0.232,-518
1.4,0.1392,-482
1.4,0.0368,-594
1.4,0.2352,-582
1.4,0.1552,-562
1.4,0.0816,-626
1.4,0.2736,-606
1.4,0.024,-586
1.4,0.2992,-606
1.4,0.3344,-550
1.4,0.152,-542
1.4,0.2416,-610
1.4,0.0752,-594
1.4,0.0368,-522
1.4,0.0592,-530
1.4,0.0272,-562
1.4,0.0208,-598
1.4,0.0176,-502
1.4,0.2416,-574
1.4,0.0592,-470
1.4,0.0016,-566
1.4,0.0816,-562
1.4,0.1168,-566
1.4,0.3408,-606
1.4,0.0368,-554
1.4,0.0368,-566
1.4,0.152,-562
1.4,0.1296,-594
1.4,0.1136,-502
1.4,0.056,-526
1.4,0.2,-554
1.4,0.2256,-558
1.4,0.2928,-598
1.4,0.1232,-534
1.4,0.1776,-494
1.4,0.0912,-602
1.4,0.2672,-602
1.4,0.168,-570
1.4,0.0432,-490
1.4,0.1744,-538
1.4,0.1456,-554
1.4,0.0784,-518
1.4,0.3184,-566
1.4,0.04,-586
1.4,0.0528,-638
1.4,0.1744,-570
1.4,0.0528,-550
1.4,0.1008,-570
1.4,0.0464,-614
1.4,0.1328,-482
1.4,0.2416,-562
1.4,0.1232,-458
1.4,0.2256,-514
1.4,0.072,-590
1.4,0.1328,-622
1.4,0.024,-506
1.4,0.1712,-662
1.4,0.1264,-522
1.4,0.0112,-618
1.4,0.1552,-578
1.4,0.2128,-582
1.4,0.0976,-610
1.4,0.0144,-518
1.4,0.3536,-566
1.4,0.5072,-630
1.4,0.1552,-466
1.4,0.168,-598
1.4,0.1648,-542
1.4,0.3696,-626
1.4,0.0848,-550
1.4,0.1648,-530
1.4,0.152,-530
1.4,0.0048,-642
1.4,0.072,-614
1.4,0.0624,-570
1.4,0.056,-578
1.4,0.1232,-542
1.4,0.0144,-538
1.4,0.104,-550
1.4,0.12,-578
1.4,0.184,-530
1.4,0.12,-506
1.4,0.3088,-570
1.4,0.3344,-646
1.4,0.1488,-550
1.4,0.1008,-498
1.4,0.3728,-630
1.4,0.1424,-470
1.4,0.1424,-582
1.4,0.1776,-554
1.4,0.008,-530
1.4,0.1808,-642
1.4,0.1072,-594
1.4,0.3472,-578
1.4,0.0624,-550
1.4,0.1584,-570
1.4,0.1872,-574
1.4,0.1488,-582
1.4,0.2352,-498
1.4,0.0464,-594
1.4,0.3024,-666
1.4,0.264,-610
1.4,0.216,-590
1.4,0.024,-542
1.4,0.0688,-606
1.4,0.1776,-538
1.4,0.1872,-514
1.4,0.0752,-566
1.4,0.1456,-562
1.4,0.1264,-622
1.4,0.0368,-506
1.4,0.1456,-554
1.4,0.168,-650
1.4,0.1264,-610
1.4,0.264,-534
1.4,0.2608,-626
1.4,0.0272,-462
1.4,0.0688,-494
1.4,0.3728,-586
1.4,0.2512,-582
1.4,0.152,-602
1.4,0.136,-554
1.4,0.2352,-582
1.4,0.2384,-646
1.4,0.168,-494
1.4,0.1328,-546
1.4,0.2864,-586
1.4,0.2256,-598
1.4,0.2512,-602
1.4,0.0944,-622
1.4,0.0816,-578
1.4,0.2704,-594
1.4,0.1424,-478
1.4,0.0176,-518
1.4,0.1712,-578
1.4,0.0048,-570
1.4,0.0848,-534
1.4,0.1584,-598
1.4,0.008,-634
1.4,0.2512,-626
1.4,0.232,-598
1.4,0.0944,-518
1.4,0.2,-606
1.4,0.072,-598
1.4,0.2096,-518
1.4,0.0144,-498
1.4,0.1104,-586
1.4,0.1488,-654
1.4,0.1072,-550
1.4,0.072,-542
1.4,0.2,-534
1.4,0.0528,-626
1.4,0.0464,-546
1.4,0.0816,-598
1.4,0.0784,-518
1.4,0.0784,-618
1.4,0.0272,-538
1.4,0.3568,-642
1.4,0.2352,-598
1.4,0.2832,-518
1.4,0.0496,-502
1.4,0.0752,-482
1.4,0.072,-550
1.4,0.0816,-490
1.4,0.088,-638
1.4,0.1072,-594
1.4,0.2672,-562
1.4,0.1936,-638
1.4,0.2928,-602
1.4,0.0112,-594
1.4,0.104,-582
1.4,0.1232,-510
1.4,0.1168,-570
1.4,0.0624,-658
1.4,0.3376,-546
1.4,0.3248,-622
1.4,0.0208,-490
1.4,0.0336,-558
1.4,0.0304,-522
1.4,0.1328,-574
1.4,0.0912,-574
1.4,0.3152,-574
1.4,0.0944,-658
1.4,0.1072,-582
1.4,0.216,-666
1.4,0.1264,-510
1.4,0.1104,-538
1.4,0.0496,-574
1.4,0.0912,-534
1.4,0.1328,-626
1.4,0.12,-546
1.4,0.248,-586
1.4,0.0176,-514
1.4,0.232,-590
1.4,0.4112,-578
1.4,0.12,-482
1.4,0.1584,-598
1.4,0.1808,-574
1.4,0.0336,-502
1.4,0.2384,-566
1.4,0.0752,-598
1.4,0.0336,-558
1.4,0.1296,-614
1.4,0.136,-638
1.4,0.1584,-506
1.4,0.1552,-598
1.4,0.1648,-638
1.4,0.3152,-526
1.4,0.2896,-546
1.4,0.1776,-586
1.4,0.0688,-570
1.4,0.024,-554
1.4,0.0368,-614
1.4,0.2256,-534
1.4,0.1232,-506
1.4,0.104,-690
1.4,0.3472,-602
1.4,0.2192,-558
1.4,0.3376,-618
1.4,0.04,-458
1.4,0.1456,-582
1.4,0.1232,-566
1.4,0.312,-562
1.4,0.3184,-514
1.4,0.0304,-522
1.4,0.1296,-554
1.4,0.3536,-522
1.4,0.2608,-602
1.4,0.0464,-546
1.4,0.1584,-474
1.4,0.0528,-598
1.4,0.2192,-630
1.4,0.0176,-590
1.4,0.264,-618
1.4,0.056,-630
1.4,0.1904,-490
1.4,0.0112,-526
1.4,0.2448,-582
1.4,0.1008,-594
1.4,0.1616,-650
1.4,0.1296,-586
1.4,0.3792,-550
1.4,0.008,-554
1.4,0.1552,-498
1.4,0.2192,-546
1.4,0.0496,-506
1.4,0.2064,-566
1.4,0.1968,-566
1.4,0.1552,-650
1.4,0.1456,-602
1.4,0.1488,-610
1.4,0.1424,-634
1.4,0.4432,-690
1.4,0.1872,-654
1.4,0.0336,-482
1.4,0.0112,-562
1.4,0.2096,-542
1.4,0.0304,-486
1.4,0.1488,-506
1.4,0.0272,-586
1.4,0.0784,-590
1.4,0.136,-506
1.4,0.1008,-646
1.4,0.184,-618
1.4,0.0016,-538
1.4,0.0112,-578
1.4,0.04,-614
1.4,0.04,-562
1.4,0.1776,-526
1.4,0.0464,-606
1.4,0.0848,-606
1.4,0.1904,-662
1.4,0.4176,-622
1.4,0.168,-618
1.4,0.0976,-442
1.4,0.1456,-578
1.4,0.0016,-738
1.4,0.1616,-550
1.4,0.3312,-630
1.4,0.2032,-474
1.4,0.0048,-562
1.4,0.3024,-638
1.4,0.2032,-686
1.4,0.1072,-546
1.4,0.0656,-498
1.4,0.3152,-602
1.4,0.104,-558
1.4,0.2064,-606
1.4,0.2608,-582
1.4,0.0624,-446
1.4,0.2064,-558
1.4,0.2288,-562
1.4,0.2608,-438
1.4,0.1648,-590
1.4,0.4592,-594
1.4,0.056,-570
1.4,0.3024,-574
1.4,0.0656,-602
1.4,0.0208,-634
1.4,0.0336,-518
1.4,0.1936,-658
1.4,0.0176,-510
1.4,0.0464,-510
1.4,0.1808,-514
1.4,0.1968,-494
1.4,0.072,-566
1.4,0.0784,-562
1.4,0.0496,-522
1.4,0.0624,-570
1.4,0.0208,-506
1.4,0.0752,-510
1.4,0.104,-586
1.4,0.2384,-594
1.4,0.0944,-590
1.4,0.1616,-574
1.4,0.2192,-582
1.4,0.04,-622
1.4,0.0368,-522
1.4,0.264,-574
1.4,0.0944,-530
1.4,0.0016,-530
1.4,0.0336,-586
1.4,0.232,-542
1.4,0.3024,-518
1.4,0.0848,-530
1.4,0.0496,-526
1.4,0.0112,-570
1.4,0.0592,-578
1.4,0.3504,-638
1.4,0.4016,-586
1.4,0.2192,-494
1.4,0.0368,-538
1.4,0.1104,-534
1.4,0.0688,-546
1.4,0.1488,-618
1.4,0.0656,-578
1.4,0.184,-582
1.4,0.2576,-594
1.4,0.2128,-550
1.4,0.3024,-622
1.4,0.0752,-486
1.4,0.0016,-550
1.4,0.04,-602
1.4,0.1168,-622
1.4,0.1904,-574
1.4,0.2704,-550
1.4,0.1424,-554
1.4,0.0048,-506
1.4,0.1328,-570
1.4,0.0752,-566
1.4,0.2352,-606
1.4,0.1904,-502
1.4,0.264,-554
1.4,0.0176,-518
1.4,0.1136,-586
1.4,0.248,-566
1.4,0.1072,-490
1.4,0.1744,-590
1.4,0.0144,-526
1.4,0.4208,-686
1.4,0.3088,-518
1.4,0.088,-550
1.4,0.1296,-558
1.4,0.1136,-502
1.4,0.1616,-610
1.4,0.152,-550
1.4,0.1584,-662
1.4,0.328,-630
1.4,0.1296,-590
1.4,0.1776,-590
1.4,0.0752,-578
1.4,0.056,-554
1.4,0.0048,-578
1.4,0.1008,-546
1.4,0.056,-570
1.4,0.0048,-614
1.4,0.2352,-566
1.4,0.1744,-526
1.4,0.4752,-606
1.4,0.28,-650
1.4,0.008,-550
1.4,0.152,-662
1.4,0.2288,-586
1.4,0.1616,-550
1.4,0.1072,-586
1.4,0.0016,-538
1.4,0.3632,-530
1.4,0.1616,-542
1.4,0.2768,-598
1.4,0.0976,-558
1.4,0.0688,-570
1.4,0.0752,-470
1.4,0.072,-486
1.4,0.0208,-606
1.4,0.344,-562
1.4,0.0208,-650
1.4,0.104,-574
1.4,0.04,-642
1.4,0.1936,-558
1.4,0.2096,-534
1.4,0.0048,-550
1.4,0.1104,-622
1.4,0.0816,-502
1.4,0.0368,-582
1.4,0.1328,-574
1.4,0.2256,-678
1.4,0.152,-590
1.4,0.1552,-554
1.4,0.232,-570
1.4,0.1008,-630
1.4,0.0464,-554
1.4,0.2928,-674
1.4,0.0528,-630
1.4,0.0144,-518
1.4,0.056,-594
1.4,0.0496,-570
1.4,0.1584,-574
1.4,0.056,-642
1.4,0.136,-518
1.4,0.3152,-658
1.4,0.2448,-582
1.4,0.2736,-602
1.4,0.1104,-666
1.4,0.1712,-634
1.4,0.2,-478
1.4,0.0112,-574
1.4,0.136,-546
1.4,0.3952,-566
1.4,0.0016,-450
1.4,0.1456,-558
1.4,0.152,-646
1.4,0.0112,-654
1.4,0.12,-558
1.4,0.1552,-522
1.4,0.2192,-518
1.4,0.024,-462
1.4,0.1168,-614
1.4,0.1488,-610
1.4,0.1232,-574
1.4,0.232,-658
1.4,0.0336,-566
1.4,0.0336,-530
1.4,0.0752,-602
1.4,0.1808,-618
1.4,0.056,-570
1.4,0.0656,-534
1.4,0.2352,-674
1.4,0.104,-522
1.4,0.104,-546
1.4,0.024,-562
1.4,0.216,-482
1.4,0.1968,-558
1.4,0.008,-550
1.4,0.0752,-582
1.4,0.1552,-522
1.4,0.0528,-510
1.4,0.1168,-634
1.4,0.1392,-522
1.4,0.04,-582
1.4,0.0016,-502
1.4,0.0336,-570
1.4,0.0592,-594
1.4,0.04,-526
1.4,0.0784,-538
1.4,0.0848,-558
1.4,0.1328,-590
1.4,0.3568,-626
1.4,0.1744,-574
1.4,0.4656,-638
1.4,0.1776,-590
1.4,0.1616,-558
1.4,0.2096,-502
1.4,0.1552,-574
1.4,0.104,-634
1.4,0.0656,-510
1.4,0.1296,-558
1.4,0.136,-590
1.4,0.1712,-590
1.4,0.1264,-618
1.4,0.1776,-486
1.4,0.28,-582
1.4,0.1168,-554
1.4,0.3248,-538
1.4,0.0752,-622
1.4,0.024,-526
1.4,0.2224,-622
1.4,0.0624,-574
1.4,0.3152,-534
1.4,0.4176,-650
1.4,0.088,-462
1.4,0.0528,-526
1.4,0.1808,-594
1.4,0.0496,-562
1.4,0.104,-606
1.4,0.1104,-602
1.4,0.008,-546
1.4,0.0496,-570
1.4,0.1808,-522
1.4,0.1456,-578
1.4,0.2064,-586
1.4,0.0976,-510
1.4,0.0016,-530
1.4,0.1744,-602
1.4,0.024,-634
1.4,0.1008,-538
1.4,0.12,-546
1.4,0.1936,-614
1.4,0.04,-622
1.4,0.28,-586
1.4,0.04,-670
1.4,0.136,-542
1.4,0.2384,-558
1.4,0.1168,-578
1.4,0.0272,-626
1.4,0.1328,-518
1.4,0.0304,-570
1.4,0.168,-578
1.4,0.12,-538
1.4,0.1456,-634
1.4,0.4656,-638
1.4,0.4624,-622
1.4,0.1328,-542
1.4,0.0112,-606
1.4,0.1104,-618
1.4,0.1136,-566
1.4,0.36,-570
1.4,0.04,-598
1.4,0.0688,-614
1.4,0.0336,-530
1.4,0.0912,-434
1.4,0.088,-546
1.4,0.0368,-542
1.4,0.1456,-534
1.4,0.0432,-602
1.4,0.1488,-478
1.4,0.0976,-506
1.4,0.12,-630
1.4,0.3504,-542
1.4,0.0304,-578
1.4,0.136,-562
1.4,0.072,-478
1.4,0.2224,-634
1.4,0.1168,-574
1.4,0.1488,-530
1.4,0.2864,-614
1.4,0.024,-506
1.4,0.1712,-622
1.4,0.0016,-522
1.4,0.0464,-638
1.4,0.0848,-502
1.4,0.04,-638
1.4,0.2384,-626
1.4,0.2032,-618
1.4,0.3728,-686
1.4,0.1936,-594
1.4,0.1072,-510
1.4,0.0848,-542
1.4,0.2128,-542
1.4,0.0912,-574
1.4,0.1424,-522
1.4,0.1744,-566
1.4,0.0528,-610
1.4,0.1136,-502
1.4,0.0688,-598
1.4,0.2512,-478
1.4,0.104,-562
1.4,0.1936,-534
1.4,0.0528,-626
1.4,0.3472,-634
1.4,0.0848,-546
1.4,0.0336,-590
1.4,0.4912,-610
1.4,0.072,-534
1.4,0.0048,-530
1.4,0.0944,-574
1.4,0.2608,-486
1.4,0.1808,-578
1.4,0.1936,-626
1.4,0.1392,-570
1.4,0.04,-558
1.4,0.1232,-562
1.4,0.2864,-510
1.4,0.1552,-594
1.4,0.1008,-542
1.4,0.0304,-494
1.4,0.0336,-650
1.4,0.0784,-542
1.4,0.1072,-558
1.4,0.1776,-614
1.4,0.0624,-634
1.4,0.0048,-534
1.4,0.12,-510
1.4,0.1328,-634
1.4,0.0624,-558
1.4,0.1392,-590
1.4,0.04,-602
1.4,0.1232,-614
1.4,0.1136,-526
1.4,0.0976,-550
1.4,0.312,-566
1.4,0.0304,-530
1.4,0.0496,-622
1.4,0.008,-490
1.4,0.2416,-554
1.4,0.3184,-662
1.4,0.1328,-598
1.4,0.0208,-490
1.4,0.0176,-566
1.4,0.0848,-558
1.4,0.1424,-542
1.4,0.0208,-594
1.4,0.04,-486
1.4,0.0048,-566
1.4,0.2256,-578
1.4,0.1872,-466
1.4,0.2832,-598
1.4,0.0016,-554
1.4,0.2192,-578
1.4,0.1584,-558
1.4,0.0016,-558
1.4,0.0528,-506
1.4,0.12,-570
1.4,0.1968,-518
1.4,0.0976,-594
1.4,0.088,-582
1.4,0.0464,-590
1.4,0.0176,-554
1.4,0.104,-634
1.4,0.3888,-594
1.4,0.0496,-470
1.4,0.024,-446
1.4,0.2608,-578
1.4,0.0656,-558
1.4,0.0432,-582
1.4,0.024,-610
1.4,0.2896,-606
1.4,0.0368,-602
1.4,0.3952,-638
1.4,0.0144,-546
1.4,0.104,-522
1.4,0.1488,-490
1.4,0.12,-622
1.4,0.1584,-618
1.4,0.008,-506
1.4,0.2,-530
1.4,0.1072,-638
1.4,0.04,-530
1.4,0.1744,-586
1.4,0.04,-522
1.4,0.072,-558
1.4,0.1488,-526
1.4,0.1616,-538
1.4,0.1008,-510
1.4,0.0912,-502
1.4,0.0048,-482
1.4,0.184,-594
1.4,0.072,-518
1.4,0.1232,-502
1.4,0.1168,-550
1.4,0.008,-546
1.4,0.104,-498
1.4,0.024,-598
1.4,0.2608,-582
1.4,0.168,-662
1.4,0.0848,-478
1.4,0.1072,-598
1.4,0.1264,-558
1.4,0.1776,-526
1.4,0.184,-538
1.4,0.104,-558
1.4,0.1264,-662
1.4,0.0208,-498
1.4,0.0432,-606
1.4,0.0144,-570
1.4,0.2352,-562
1.4,0.0144,-542
1.4,0.168,-562
1.4,0.3728,-658
1.4,0.1232,-630
1.4,0.04,-638
1.4,0.1808,-594
1.4,0.0176,-642
1.4,0.0624,-598
1.4,0.2032,-594
1.4,0.1616,-618
1.4,0.0688,-494
1.4,0.12,-586
1.4,0.3536,-606
1.4,0.0208,-474
1.4,0.4144,-642
1.4,0.104,-510
1.4,0.0304,-478
1.4,0.024,-550
1.4,0.0048,-578
1.4,0.0336,-506
1.4,0.0656,-590
1.4,0.1072,-554
1.4,0.0304,-650
1.4,0.1072,-534
1.4,0.376,-570
1.4,0.456,-618
1.4,0.2032,-522
1.4,0.1264,-586
1.4,0.072,-614
1.4,0.0784,-538
1.4,0.3024,-578
1.4,0.072,-542
1.4,0.0304,-554
1.4,0.0528,-502
1.4,0.28,-650
1.4,0.0912,-554
1.4,0.0208,-686
1.4,0.0592,-590
1.4,0.3024,-554
1.4,0.0304,-558
1.4,0.2448,-594
1.4,0.008,-562
1.4,0.0208,-558
1.4,0.0016,-454
1.4,0.0528,-510
1.4,0.0784,-582
1.4,0.1488,-690
1.4,0.1872,-598
1.4,0.1456,-438
1.4,0.0336,-482
1.4,0.088,-634
1.4,0.3088,-638
1.4,0.0496,-562
1.4,0.1872,-602
1.4,0.0272,-586
1.4,0.0464,-578
1.4,0.1264,-526
1.4,0.0592,-514
1.4,0.3568,-618
1.4,0.168,-618
1.4,0.1264,-598
1.4,0.072,-566
1.4,0.2,-654
1.4,0.0848,-518
1.4,0.0432,-534
1.4,0.248,-590
1.4,0.4784,-622
1.4,0.392,-658
1.4,0.0752,-502
1.4,0.1104,-562
1.4,0.0848,-534
1.4,0.0656,-482
1.4,0.2,-582
1.4,0.0048,-570
1.4,0.2448,-598
1.4,0.1584,-542
1.4,0.2224,-546
1.4,0.104,-566
1.4,0.1104,-522
1.4,0.104,-610
1.4,0.1328,-546
1.4,0.1008,-574
1.4,0.1488,-546
1.4,0.2448,-598
1.4,0.1488,-554
1.4,0.0944,-622
1.4,0.0016,-470
1.4,0.296,-642
1.4,0.04,-566
1.4,0.1104,-550
1.4,0.1808,-582
1.4,0.2416,-490
1.4,0.0304,-538
1.4,0.072,-582
1.4,0.0048,-546
1.4,0.0848,-566
1.4,0.088,-610
1.4,0.1648,-594
1.4,0.2032,-682
1.4,0.0624,-514
1.4,0.0688,-546
1.4,0.0624,-602
1.4,0.1264,-582
1.4,0.0144,-554
1.4,0.12,-506
1.4,0.072,-578
1.4,0.0176,-598
1.4,0.1296,-562
1.4,0.2736,-706
1.4,0.1104,-542
1.4,0.0048,-550
1.4,0.0912,-598
1.4,0.1968,-570
1.4,0.1616,-522
1.4,0.1008,-478
1.4,0.0496,-634
1.4,0.4112,-654
1.4,0.0048,-530
1.4,0.0752,-606
1.4,0.2608,-486
1.4,0.2512,-634
1.4,0.1136,-534
1.4,0.0272,-610
1.4,0.2128,-502
1.4,0.0496,-646
1.4,0.2128,-626
1.4,0.2672,-614
1.4,0.1872,-558
1.4,0.1808,-594
1.4,0.1136,-654
1.4,0.264,-534
1.4,0.0304,-526
1.4,0.1744,-542
1.4,0.0656,-534
1.4,0.1808,-562
1.4,0.0752,-606
1.4,0.1968,-502
1.4,0.0656,-594
1.4,0.1168,-614
1.4,0.2224,-526
1.4,0.0816,-482
1.4,0.0368,-566
1.4,0.2128,-618
1.4,0.0176,-570
1.4,0.1456,-538
1.4,0.1552,-614
1.4,0.0016,-514
1.4,0.1264,-534
1.4,0.1136,-486
1.4,0.136,-610
1.4,0.1264,-510
1.4,0.1264,-546
1.4,0.0944,-538
1.4,0.2896,-562
1.4,0.1296,-574
1.4,0.344,-606
1.4,0.1584,-642
1.4,0.1392,-542
1.4,0.0592,-538
1.4,0.152,-590
1.4,0.0784,-542
1.4,0.136,-658
1.4,0.0144,-542
1.4,0.2192,-570
1.4,0.1072,-582
1.4,0.0464,-570
1.4,0.3472,-590
1.4,0.088,-622
1.4,0.1872,-590
1.4,0.0464,-594
1.4,0.0272,-558
1.4,0.0112,-582
1.4,0.184,-662
1.4,0.0528,-590
1.4,0.0272,-518
1.4,0.0944,-474
1.4,0.0208,-514
1.4,0.0688,-546
1.4,0.0624,-574
1.4,0.088,-530
1.4,0.0208,-482
1.4,0.1232,-522
1.4,0.104,-518
1.4,0.0112,-458
1.4,0.1104,-522
1.4,0.0464,-622
1.4,0.2224,-562
1.4,0.1744,-510
1.4,0.1168,-610
1.4,0.0272,-542
1.4,0.2096,-602
1.4,0.0016,-458
1.4,0.3888,-538
1.4,0.072,-658
1.4,0.1072,-542
1.4,0.1328,-486
1.4,0.0048,-618
1.4,0.0496,-482
1.4,0.2512,-634
1.4,0.1488,-502
1.4,0.0048,-594
1.4,0.0144,-578
1.4,0.1488,-546
1.4,0.0016,-530
1.4,0.1168,-598
1.4,0.12,-638
1.4,0.0272,-534
1.4,0.1264,-598
1.4,0.072,-546
1.4,0.136,-566
1.4,0.4912,-646
1.4,0.0144,-462
1.4,0.0464,-594
1.4,0.0464,-574
1.4,0.1776,-502
1.4,0.1264,-546
1.4,0.0976,-618
1.4,0.3696,-634
1.4,0.1264,-522
1.4,0.072,-602
1.4,0.0752,-558
1.4,0.1264,-642
1.4,0.104,-578
1.4,0.024,-546
1.4,0.1872,-570
1.4,0.104,-546
1.4,0.1104,-538
1.4,0.1648,-562
1.4,0.184,-590
1.4,0.0976,-534
1.4,0.1232,-654
1.4,0.0464,-566
1.4,0.152,-542
1.4,0.0848,-566
1.4,0.1232,-606
1.4,0.136,-566
1.4,0.056,-502
1.4,0.1648,-574
1.4,0.088,-574
1.4,0.152,-578
1.4,0.1904,-582
1.4,0.1296,-630
1.4,0.2544,-538
1.4,0.1648,-594
1.4,0.1328,-654
1.4,0.1392,-530
1.4,0.0464,-550
1.4,0.0336,-666
1.4,0.0208,-522
1.4,0.1168,-582
1.4,0.1552,-534
1.4,0.0752,-710
1.4,0.0432,-582
1.4,0.1872,-602
1.4,0.0176,-554
1.4,0.3472,-574
1.4,0.0496,-478
1.4,0.2096,-542
1.4,0.1968,-526
1.4,0.2832,-562
1.4,0.072,-610
1.4,0.152,-582
1.4,0.2192,-546
1.4,0.1776,-514
1.4,0.0816,-594
1.4,0.2704,-630
1.4,0.0016,-606
1.4,0.0368,-530
1.4,0.1744,-606
1.4,0.1648,-506
1.4,0.3152,-554
1.4,0.0016,-590
1.4,0.1296,-522
1.4,0.0208,-550
1.4,0.1552,-534
1.4,0.168,-550
1.4,0.1936,-530
1.4,0.024,-550
1.4,0.264,-626
1.4,0.0432,-574
1.4,0.152,-550
1.4,0.152,-678
1.4,0.1808,-530
1.4,0.2736,-590
1.4,0.0528,-578
1.4,0.232,-526
1.4,0.1296,-578
1.4,0.104,-550
1.4,0.1232,-478
1.4,0.2544,-674
1.4,0.136,-530
1.4,0.152,-510
1.4,0.0528,-662
1.4,0.1104,-630
1.4,0.104,-522
1.4,0.1296,-526
1.4,0.328,-582
1.4,0.0656,-502
1.4,0.2864,-590
1.4,0.1968,-522
1.4,0.264,-610
1.4,0.2352,-598
1.4,0.1168,-538
1.4,0.1328,-574
1.4,0.0784,-614
1.4,0.0112,-570
1.4,0.1392,-670
1.4,0.0784,-494
1.4,0.0592,-622
1.4,0.168,-626
1.4,0.0144,-602
1.4,0.2,-490
1.4,0.2192,-566
1.4,0.104,-562
1.4,0.2032,-602
1.4,0.3792,-650
1.4,0.0784,-598
1.4,0.056,-630
1.4,0.0144,-626
1.4,0.0048,-510
1.4,0.1232,-558
1.4,0.136,-534
1.4,0.0656,-618
1.4,0.0592,-470
1.4,0.072,-542
1.4,0.2224,-486
1.4,0.0624,-578
1.4,0.264,-578
1.4,0.2544,-514
1.4,0.0912,-574
1.4,0.2704,-638
1.4,0.0944,-570
1.4,0.0912,-570
1.4,0.1072,-594
1.4,0.12,-658
1.4,0.136,-562
1.4,0.3664,-582
1.4,0.1648,-602
1.4,0.1392,-658
1.4,0.12,-494
1.4,0.1072,-486
1.4,0.1104,-590
1.4,0.1584,-570
1.4,0.1424,-634
1.4,0.2736,-542
1.4,0.0912,-526
1.4,0.12,-534
1.4,0.0816,-574
1.4,0.1904,-442
1.4,0.2096,-586
1.4,0.1744,-598
1.4,0.1872,-594
1.4,0.1904,-634
1.4,0.1936,-598
1.4,0.0688,-558
1.4,0.408,-670
1.4,0.0144,-474
1.4,0.232,-574
1.4,0.1488,-594
1.4,0.4304,-670
1.4,0.0848,-550
1.4,0.0784,-514
1.4,0.1488,-594
1.4,0.0656,-470
1.4,0.0304,-582
1.4,0.1392,-574
1.4,0.1232,-482
1.4,0.0848,-538
1.4,0.1552,-670
1.4,0.2096,-558
1.4,0.1008,-562
1.4,0.2096,-558
1.4,0.0016,-462
1.4,0.0912,-594
1.4,0.0944,-574
1.4,0.056,-510
1.4,0.0464,-526
1.4,0.0976,-550
1.4,0.0592,-522
1.4,0.0656,-554
1.4,0.0048,-530
1.4,0.3536,-626
1.4,0.2736,-562
1.4,0.1904,-522
1.4,0.1232,-538
1.4,0.0176,-558
1.4,0.1712,-610
1.4,0.0368,-598
1.4,0.0496,-578
1.4,0.1936,-582
1.4,0.0272,-582
1.4,0.2128,-610
1.4,0.0272,-482
1.4,0.1872,-574
1.4,0.168,-494
1.4,0.1424,-554
1.4,0.1456,-566
1.4,0.056,-606
1.4,0.2704,-618
1.4,0.2768,-590
1.4,0.168,-482
1.4,0.2576,-554
1.4,0.0688,-534
1.4,0.2864,-578
1.4,0.0656,-598
1.4,0.0144,-506
1.4,0.1008,-554
1.4,0.0304,-554
1.4,0.0272,-550
1.4,0.12,-542
1.4,0.1328,-514
1.4,0.1456,-578
1.4,0.0272,-586
1.4,0.296,-590
1.4,0.0496,-566
1.4,0.0144,-554
1.4,0.2256,-538
1.4,0.1904,-562
1.4,0.04,-622
1.4,0.0176,-506
1.4,0.0656,-494
1.4,0.2832,-618
1.4,0.2256,-542
1.4,0.1488,-634
1.4,0.1648,-550
1.4,0.2832,-566
1.4,0.008,-498
1.4,0.0208,-634
1.4,0.3536,-578
1.4,0.0656,-582
1.4,0.2192,-598
1.4,0.1264,-510
1.4,0.4272,-610
1.4,0.232,-630
1.4,0.296,-586
1.4,0.2768,-526
1.4,0.3504,-502
1.4,0.248,-566
1.4,0.12,-526
1.4,0.2736,-610
1.4,0.0496,-470
1.4,0.184,-574
1.4,0.0624,-534
1.4,0.0368,-534
1.4,0.1584,-598
1.4,0.1616,-458
1.4,0.1552,-582
1.4,0.008,-570
1.4,0.0816,-534
1.4,0.0176,-546
1.4,0.12,-614
1.4,0.0912,-634
1.4,0.1488,-498
1.4,0.04,-450
1.4,0.136,-570
1.4,0.0848,-558
1.4,0.0336,-554
1.4,0.184,-522
1.4,0.0176,-614
1.4,0.3024,-634
1.4,0.2128,-474
1.4,0.0368,-606
1.4,0.0464,-618
1.4,0.1616,-478
1.4,0.0784,-446
1.4,0.1872,-590
1.4,0.1968,-582
1.4,0.2096,-662
1.4,0.1104,-514
1.4,0.008,-594
1.4,0.0464,-530
1.4,0.184,-478
1.4,0.0016,-490
1.4,0.0016,-578
1.4,0.1648,-606
1.4,0.2224,-594
1.4,0.1936,-526
1.4,0.104,-466
1.4,0.1296,-498
1.4,0.3184,-546
1.4,0.2896,-610
1.4,0.088,-558
1.4,0.2352,-538
1.4,0.1328,-562
1.4,0.0784,-618
1.4,0.248,-654
1.4,0.2,-542
1.4,0.0912,-538
1.4,0.0368,-522
1.4,0.216,-538
1.4,0.0656,-710
1.4,0.1584,-582
1.4,0.2128,-494
1.4,0.1712,-586
1.4,0.1136,-554
1.4,0.0336,-582
1.4,0.2576,-594
1.4,0.0752,-542
1.4,0.1616,-614
1.4,0.2704,-642
1.4,0.1168,-630
1.4,0.1648,-594
1.4,0.2288,-510
1.4,0.008,-538
1.4,0.1232,-566
1.4,0.312,-626
1.4,0.3344,-610
1.4,0.2096,-686
1.4,0.312,-602
1.4,0.0592,-546
1.4,0.3312,-510
1.4,0.1424,-590
1.4,0.0912,-526
1.4,0.168,-570
1.4,0.1488,-542
1.4,0.0208,-562
1.4,0.376,-602
1.4,0.0688,-550
1.4,0.0944,-590
1.4,0.1136,-570
1.4,0.0304,-602
1.4,0.1776,-594
1.4,0.3568,-542
1.4,0.0176,-578
1.4,0.216,-594
1.4,0.3312,-610
1.4,0.008,-550
1.4,0.1744,-506
1.4,0.1648,-554
1.4,0.1424,-602
1.4,0.1552,-490
1.4,0.168,-550
1.4,0.168,-578
1.4,0.04,-550
1.4,0.0208,-530
1.4,0.0848,-510
1.4,0.0816,-542
1.4,0.2768,-562
1.4,0.104,-562
1.4,0.1008,-482
1.4,0.3536,-582
1.4,0.12,-542
1.4,0.0656,-510
1.4,0.3248,-618
1.4,0.0688,-458
1.4,0.1968,-554
1.4,0.0592,-574
1.4,0.1104,-494
1.4,0.1648,-622
1.4,0.0272,-450
1.4,0.0528,-558
1.4,0.0656,-646
1.4,0.1072,-526
1.4,0.2064,-590
1.4,0.1168,-494
1.4,0.1232,-526
1.4,0.056,-610
1.4,0.0272,-526
1.4,0.2032,-642
1.4,0.28,-578
1.4,0.152,-626
1.4,0.1648,-546
1.4,0.1936,-594
1.4,0.0912,-590
1.4,0.1872,-590
1.4,0.0496,-570
1.4,0.248,-530
1.4,0.0112,-574
1.4,0.104,-586
1.4,0.0944,-506
1.4,0.1008,-498
1.4,0.0976,-514
1.4,0.1008,-510
1.4,0.1104,-458
1.4,0.0176,-530
1.4,0.1552,-546
1.4,0.0752,-614
1.4,0.0944,-522
1.4,0.136,-574
1.4,0.0752,-478
1.4,0.2512,-558
1.4,0.0528,-562
1.4,0.328,-630
1.4,0.0272,-534
1.4,0.0208,-574
1.4,0.184,-498
1.4,0.1552,-662
1.4,0.1744,-538
1.4,0.0912,-594
1.4,0.0464,-542
1.4,0.12,-534
1.4,0.232,-538
1.4,0.0624,-666
1.4,0.3984,-650
1.4,0.0432,-562
1.4,0.088,-530
1.4,0.3344,-546
1.4,0.0336,-534
1.4,0.0976,-530
1.4,0.2288,-570
1.4,0.0752,-542
1.4,0.0624,-586
1.4,0.056,-582
1.4,0.216,-598
1.4,0.0144,-502
1.4,0.296,-622
1.4,0.1808,-530
1.4,0.2928,-638
1.4,0.1488,-586
1.4,0.184,-522
1.4,0.2384,-566
1.4,0.1712,-566
1.4,0.232,-582
1.4,0.0784,-566
1.4,0.008,-526
1.4,0.0496,-586
1.4,0.2608,-582
1.4,0.0112,-582
1.4,0.0272,-522
1.4,0.0304,-562
1.4,0.1264,-490
1.4,0.0368,-654
1.4,0.0144,-550
1.4,0.1328,-550
1.4,0.0848,-518
1.4,0.088,-550
1.4,0.12,-594
1.4,0.0496,-522
1.4,0.0912,-558
1.4,0.0944,-486
1.4,0.0144,-474
1.4,0.2352,-570
1.4,0.088,-502
1.4,0.104,-582
1.4,0.2384,-638
1.4,0.1968,-570
1.4,0.056,-546
1.4,0.2096,-574
1.4,0.072,-486
1.4,0.1712,-494
1.4,0.2128,-542
1.4,0.216,-586
1.4,0.0976,-558
1.4,0.216,-586
1.4,0.1136,-582
1.4,0.0432,-566
1.4,0.0272,-514
1.4,0.0624,-506
1.4,0.2064,-606
1.4,0.1456,-498
1.4,0.0464,-522
1.4,0.0016,-558
1.4,0.184,-566
1.4,0.1168,-602
1.4,0.1456,-550
1.4,0.0272,-546
1.4,0.0176,-602
1.4,0.1648,-594
1.4,0.1072,-530
1.4,0.296,-554
1.4,0.3088,-642
1.4,0.3152,-598
1.4,0.2352,-518
1.4,0.1744,-618
1.4,0.0656,-462
1.4,0.0368,-466
1.4,0.2192,-626
1.4,0.1456,-514
1.4,0.2736,-614
1.4,0.232,-654
1.4,0.216,-618
1.4,0.3312,-642
1.4,0.2704,-594
1.4,0.1616,-562
1.4,0.0976,-582
1.4,0.0272,-454
1.4,0.1552,-618
1.4,0.1072,-566
1.4,0.1296,-562
1.4,0.0528,-586
1.4,0.152,-650
1.4,0.0944,-514
1.4,0.1264,-538
1.4,0.2384,-630
1.4,0.1968,-606
1.4,0.3248,-658
1.4,0.168,-570
1.4,0.2992,-602
1.4,0.2896,-558
1.4,0.2704,-606
1.4,0.2416,-570
1.4,0.328,-666
1.4,0.216,-566
1.4,0.0336,-562
1.4,0.0528,-578
1.4,0.088,-586
1.4,0.0976,-634
1.4,0.0528,-538
1.4,0.232,-626
1.4,0.1712,-594
1.4,0.0592,-626
1.4,0.2384,-530
1.4,0.1936,-702
1.4,0.2128,-514
1.4,0.4176,-634
1.4,0.2032,-534
1.4,0.0304,-474
1.4,0.168,-554
1.4,0.3632,-650
1.4,0.3216,-618
1.4,0.1264,-510
1.4,0.0912,-674
1.4,0.0528,-598
1.4,0.2064,-626
1.4,0.2256,-542
1.4,0.0016,-590
1.4,0.3216,-642
1.4,0.2192,-554
1.4,0.0784,-638
1.4,0.1008,-526
1.4,0.1264,-510
1.4,0.0976,-502
1.4,0.1328,-562
1.4,0.2768,-550
1.4,0.008,-546
1.4,0.1296,-578
1.4,0.2288,-554
1.4,0.2704,-518
1.4,0.0816,-546
1.4,0.3952,-598
1.4,0.024,-582
1.4,0.1872,-642
1.4,0.0048,-570
1.4,0.232,-590
1.4,0.1328,-590
1.4,0.1456,-530
1.4,0.1104,-558
1.4,0.12,-558
1.4,0.0848,-618
1.4,0.12,-546
1.4,0.0304,-630
1.4,0.056,-610
1.4,0.1552,-602
1.4,0.1392,-506
1.4,0.0656,-514
1.4,0.0016,-566
1.4,0.12,-554
1.4,0.0816,-690
1.4,0.088,-630
1.4,0.1744,-578
1.4,0.2544,-546
1.4,0.0976,-582
1.4,0.0336,-562
1.4,0.072,-602
1.4,0.0976,-526
1.4,0.1072,-682
1.4,0.1648,-578
1.4,0.0368,-614
1.4,0.1904,-630
1.4,0.024,-638
1.4,0.3184,-662
1.4,0.1424,-546
1.4,0.3376,-558
1.4,0.232,-546
1.4,0.0944,-566
1.4,0.1552,-530
1.4,0.0624,-618
1.4,0.0816,-522
1.4,0.1136,-586
1.4,0.104,-646
1.4,0.0912,-558
1.4,0.0944,-578
1.4,0.2544,-478
1.4,0.0496,-674
1.4,0.1552,-634
1.4,0.2352,-514
1.4,0.0496,-586
1.4,0.1264,-494
1.4,0.0016,-562
1.4,0.0144,-546
1.4,0.0368,-630
1.4,0.2,-582
1.4,0.0944,-570
1.4,0.1904,-630
1.4,0.216,-638
1.4,0.248,-530
1.4,0.04,-650
1.4,0.0432,-562
1.4,0.2832,-566
1.4,0.0048,-502
1.4,0.0304,-478
1.4,0.3056,-562
1.4,0.0464,-566
1.4,0.1552,-690
1.4,0.0272,-634
1.4,0.1584,-498
1.4,0.0432,-538
1.4,0.1616,-558
1.4,0.184,-518
1.4,0.3056,-538
1.4,0.024,-606
1.4,0.1328,-506
1.4,0.1392,-606
1.4,0.0112,-494
1.4,0.0752,-482
1.4,0.2096,-594
1.4,0.1424,-582
1.4,0.4848,-662
1.4,0.0016,-542
1.4,0.008,-574
1.4,0.0592,-534
1.4,0.0272,-646
1.4,0.2704,-630
1.4,0.2064,-514
1.4,0.104,-686
1.4,0.0528,-574
1.4,0.2256,-574
1.4,0.0784,-446
1.4,0.2352,-630
1.4,0.0464,-610
1.4,0.0656,-506
1.4,0.1264,-558
1.4,0.0432,-498
1.4,0.0528,-526
1.4,0.088,-582
1.4,0.0432,-566
1.4,0.072,-566
1.4,0.1648,-650
1.4,0.0528,-510
1.4,0.1456,-578
1.4,0.2704,-614
1.4,0.0112,-570
1.4,0.088,-554
1.4,0.0144,-514
1.4,0.072,-566
1.4,0.2704,-622
1.4,0.1264,-574
1.4,0.0912,-434
1.4,0.072,-486
1.4,0.0016,-486
1.4,0.0144,-494
1.4,0.0336,-538
1.4,0.0336,-466
1.4,0.1264,-598
1.4,0.0432,-586
1.4,0.2384,-578
1.4,0.1328,-530
1.4,0.0336,-598
1.4,0.0048,-562
1.4,0.184,-534
1.4,0.2128,-522
1.4,0.0208,-550
1.4,0.0912,-530
1.4,0.1328,-558
1.4,0.1008,-546
1.4,0.1168,-570
1.4,0.12,-490
1.4,0.2736,-574
1.4,0.152,-626
1.4,0.0144,-610
1.4,0.3216,-598
1.4,0.2288,-586
1.4,0.1904,-530
1.4,0.0048,-478
1.4,0.4304,-630
1.4,0.1648,-498
1.4,0.1424,-538
1.4,0.0528,-498
1.4,0.3184,-614
1.4,0.0112,-490
1.4,0.3792,-602
1.4,0.1264,-598
1.4,0.056,-610
1.4,0.0112,-538
1.4,0.1136,-562
1.4,0.2736,-598
1.4,0.0784,-570
1.4,0.2256,-598
1.4,0.024,-582
1.4,0.0912,-510
1.4,0.0592,-538
1.4,0.3088,-586
1.4,0.1168,-558
1.4,0.28,-502
1.4,0.1968,-482
1.4,0.1168,-602
1.4,0.0208,-474
1.4,0.2864,-702
1.4,0.0432,-598
1.4,0.0368,-526
1.4,0.0048,-510
1.4,0.1936,-558
1.4,0.0432,-590
1.4,0.0752,-586
1.4,0.2928,-566
1.4,0.1968,-662
1.4,0.0112,-482
1.4,0.1712,-590
1.4,0.296,-578
1.4,0.0496,-626
1.4,0.2832,-586
1.4,0.0368,-610
1.4,0.2512,-566
1.4,0.0304,-566
1.4,0.1392,-586
1.4,0.1744,-518
1.4,0.1648,-586
1.4,0.1936,-590
1.4,0.1072,-634
1.4,0.2544,-466
1.4,0.2928,-566
1.4,0.4016,-566
1.4,0.152,-578
1.4,0.0816,-526
1.4,0.0272,-498
1.4,0.056,-638
1.4,0.0144,-542
1.4,0.1872,-546
1.4,0.216,-630
1.4,0.12,-630
1.4,0.1424,-518
1.4,0.2352,-570
1.4,0.0464,-570
1.4,0.0176,-486
1.4,0.0816,-546
1.4,0.0496,-558
1.4,0.1104,-522
1.4,0.2224,-554
1.4,0.2256,-586
1.4,0.1008,-522
1.4,0.2928,-586
1.4,0.1968,-622
1.4,0.1744,-610
1.4,0.0304,-554
1.4,0.1392,-666
1.4,0.0784,-610
1.4,0.3024,-610
1.4,0.0336,-522
1.4,0.008,-462
1.4,0.1296,-578
1.4,0.1616,-442
1.4,0.1104,-598
1.4,0.1808,-622
1.4,0.264,-582
1.4,0.0432,-474
1.4,0.232,-582
1.4,0.1136,-586
1.4,0.1168,-610
1.4,0.2128,-686
1.4,0.232,-542
1.4,0.0496,-550
1.4,0.3792,-622
1.4,0.024,-554
1.4,0.0176,-626
1.4,0.2928,-538
1.4,0.1424,-518
1.4,0.04,-594
1.4,0.0304,-558
1.4,0.2352,-498
1.4,0.168,-550
1.4,0.0688,-462
1.4,0.1424,-622
1.4,0.152,-566
1.4,0.3344,-606
1.4,0.1872,-586
1.4,0.1616,-526
1.4,0.088,-650
1.4,0.0112,-638
1.4,0.008,-534
1.4,0.344,-530
1.4,0.1328,-598
1.4,0.216,-606
1.4,0.04,-530
1.4,0.3056,-590
1.4,0.0688,-570
1.4,0.1936,-578
1.4,0.0752,-574
1.4,0.1776,-642
1.4,0.0304,-586
1.4,0.2,-562
1.4,0.1392,-498
1.4,0.0912,-510
1.4,0.12,-534
1.4,0.0688,-614
1.4,0.2096,-462
1.4,0.024,-650
1.4,0.024,-642
1.4,0.0336,-550
1.4,0.2832,-550
1.4,0.0112,-526
1.4,0.2,-554
1.4,0.296,-550
1.4,0.1904,-634
1.4,0.0784,-510
1.4,0.0208,-506
1.4,0.1968,-566
1.4,0.1648,-566
1.4,0.12,-530
1.4,0.1488,-598
1.4,0.4528,-550
1.4,0.0752,-506
1.4,0.1712,-626
1.4,0.056,-602
1.4,0.1616,-634
1.4,0.2864,-566
1.4,0.0432,-578
1.4,0.0304,-554
1.4,0.2352,-546
1.4,0.3024,-670
1.4,0.0656,-510
1.4,0.0016,-514
1.4,0.232,-558
1.4,0.0656,-546
1.4,0.1552,-626
1.4,0.104,-538
1.4,0.0592,-614
1.4,0.184,-594
1.4,0.0496,-586
1.4,0.1328,-638
1.4,0.0432,-582
1.4,0.3312,-658
1.4,0.0144,-518
1.4,0.04,-554
1.4,0.3664,-566
1.4,0.1392,-546
1.4,0.0336,-534
1.4,0.0048,-498
1.4,0.056,-586
1.4,0.12,-646
1.4,0.168,-614
1.4,0.232,-598
1.4,0.12,-598
1.4,0.1808,-634
1.4,0.3504,-550
1.4,0.0944,-578
1.4,0.1168,-550
1.4,0.2256,-594
1.4,0.4112,-714
1.4,0.184,-450
1.4,0.0368,-522
1.4,0.0688,-538
1.4,0.0208,-598
1.4,0.0464,-590
1.4,0.1808,-578
1.4,0.0432,-562
1.4,0.12,-498
1.4,0.0112,-534
1.4,0.0368,-534
1.4,0.0976,-606
1.4,0.1808,-506
1.4,0.0432,-574
1.4,0.0016,-546
1.4,0.1328,-534
1.4,0.1328,-574
1.4,0.1552,-538
1.4,0.2992,-618
1.4,0.072,-706
1.4,0.024,-534
1.4,0.0624,-550
1.4,0.0496,-638
1.4,0.248,-594
1.4,0.024,-546
1.4,0.104,-578
1.4,0.1296,-542
1.4,0.0432,-554
1.4,0.0176,-582
1.4,0.1008,-482
1.4,0.008,-574
1.4,0.1136,-550
1.4,0.1552,-606
1.4,0.0848,-638
1.4,0.2384,-558
1.4,0.3312,-602
1.4,0.056,-546
1.4,0.0208,-578
1.4,0.1552,-506
1.4,0.2928,-638
1.4,0.0624,-550
1.4,0.0336,-542
1.4,0.0016,-514
1.4,0.2704,-570
1.4,0.1168,-546
1.4,0.0368,-514
1.4,0.0752,-498
1.4,0.1904,-542
1.4,0.2896,-626
1.4,0.3728,-654
1.4,0.2256,-658
1.4,0.0688,-506
1.4,0.1104,-542
1.4,0.2608,-606
1.4,0.0528,-622
1.4,0.088,-570
1.4,0.0656,-570
1.4,0.0112,-546
1.4,0.36,-634
1.4,0.3152,-630
1.4,0.1008,-510
1.4,0.1392,-470
1.4,0.1584,-562
1.4,0.0624,-502
1.4,0.1008,-570
1.4,0.2928,-558
1.4,0.0528,-626
1.4,0.1136,-542
1.4,0.1168,-586
1.4,0.088,-618
1.4,0.072,-546
1.4,0.0144,-546
1.4,0.1584,-578
1.4,0.0048,-606
1.4,0.104,-586
1.4,0.1744,-538
1.4,0.1392,-530
1.4,0.136,-486
1.4,0.2224,-494
1.4,0.168,-526
1.4,0.0752,-578
1.4,0.2416,-598
1.4,0.0464,-546
1.4,0.056,-510
1.4,0.28,-562
1.4,0.1232,-554
1.4,0.0336,-594
1.4,0.1936,-570
1.4,0.2544,-590
1.4,0.1168,-610
1.4,0.0304,-546
1.4,0.0464,-538
1.4,0.0368,-494
1.4,0.152,-570
1.4,0.104,-482
1.4,0.1744,-538
1.4,0.184,-578
1.4,0.0592,-526
1.4,0.184,-582
1.4,0.168,-630
1.4,0.0208,-590
1.4,0.216,-606
1.4,0.0368,-538
1.4,0.0176,-538
1.4,0.232,-550
1.4,0.0432,-586
1.4,0.0112,-542
1.4,0.0656,-614
1.4,0.1648,-566
1.4,0.3792,-578
1.4,0.008,-502
1.4,0.3856,-594
1.4,0.1008,-566
1.4,0.0336,-654
1.4,0.3216,-510
1.4,0.1008,-498
1.4,0.0048,-530
1.4,0.0912,-474
1.4,0.104,-658
1.4,0.1712,-558
1.4,0.28,-602
1.4,0.3504,-598
1.4,0.2896,-566
1.4,0.04,-646
1.4,0.3536,-586
1.4,0.0272,-566
1.4,0.1456,-550
1.4,0.1008,-598
1.4,0.0208,-518
1.4,0.0848,-610
1.4,0.3056,-642
1.4,0.1712,-506
1.4,0.1008,-542
1.4,0.1936,-602
1.4,0.2288,-534
1.4,0.088,-574
1.4,0.2416,-566
1.4,0.056,-486
1.4,0.0816,-582
1.4,0.3856,-562
1.4,0.2,-562
1.4,0.1936,-518
1.4,0.2576,-534
1.4,0.0432,-518
1.4,0.1232,-554
1.4,0.1136,-538
1.4,0.0144,-594
1.4,0.1392,-566
1.4,0.088,-558
1.4,0.0336,-578
1.4,0.2736,-594
1.4,0.1168,-526
1.4,0.1136,-518
1.4,0.2416,-630
1.4,0.2512,-558
1.4,0.1328,-578
1.4,0.2096,-626
1.4,0.0112,-582
1.4,0.1552,-538
1.4,0.3056,-590
1.4,0.1424,-474
1.4,0.3632,-658
1.4,0.0912,-558
1.4,0.1552,-546
1.4,0.1872,-606
1.4,0.2288,-514
1.4,0.1104,-590
1.4,0.072,-590
1.4,0.0848,-558
1.4,0.136,-590
1.4,0.1008,-570
1.4,0.1904,-602
1.4,0.0976,-526
1.4,0.1616,-574
1.4,0.0016,-582
1.4,0.024,-494
1.4,0.1328,-574
1.4,0.0464,-538
1.4,0.0464,-498
1.4,0.0336,-498
1.4,0.3632,-542
1.4,0.1584,-518
1.4,0.2608,-598
1.4,0.1456,-554
1.4,0.0016,-574
1.4,0.056,-534
1.4,0.0144,-594
1.4,0.0272,-638
1.4,0.0624,-582
1.4,0.0016,-582
1.4,0.2128,-570
1.4,0.0784,-530
1.4,0.1424,-550
1.4,0.1808,-562
1.4,0.1968,-602
1.4,0.0336,-594
1.4,0.0848,-562
1.4,0.1712,-526
1.4,0.4496,-638
1.4,0.1552,-602
1.4,0.024,-582
1.4,0.3312,-606
1.4,0.0112,-490
1.4,0.0656,-514
1.4,0.1392,-510
1.4,0.2288,-618
1.4,0.0144,-598
1.4,0.1936,-514
1.4,0.2768,-578
1.4,0.2544,-578
1.4,0.248,-598
1.4,0.1104,-614
1.4,0.1936,-582
1.4,0.072,-474
1.4,0.1392,-594
1.4,0.2832,-586
1.4,0.1872,-542
1.4,0.0784,-562
1.4,0.0304,-618
1.4,0.1776,-546
1.4,0.0016,-598
1.4,0.1296,-578
1.4,0.2256,-554
1.4,0.0688,-554
1.4,0.056,-550
1.4,0.1776,-650
1.4,0.2512,-614
1.4,0.1968,-546
1.4,0.1968,-614
1.4,0.2096,-594
1.4,0.2448,-566
1.4,0.0592,-558
1.4,0.0432,-494
1.4,0.1456,-526
1.4,0.2736,-554
1.4,0.0784,-610
1.4,0.0304,-646
1.4,0.008,-522
1.4,0.088,-614
1.4,0.0272,-574
1.4,0.1328,-522
1.4,0.3856,-618
1.4,0.1264,-574
1.4,0.0336,-578
1.4,0.1328,-554
1.4,0.3088,-554
1.4,0.0208,-546
1.4,0.1648,-578
1.4,0.0112,-534
1.4,0.1936,-554
1.4,0.152,-622
1.4,0.0656,-578
1.4,0.0944,-562
1.4,0.0816,-594
1.4,0.136,-566
1.4,0.0112,-602
1.4,0.1328,-518
1.4,0.1456,-590
1.4,0.1232,-526
1.4,0.008,-530
1.4,0.1264,-614
1.4,0.1136,-586
1.4,0.0944,-542
1.4,0.2288,-590
1.4,0.0144,-486
1.4,0.0496,-526
1.4,0.0816,-662
1.4,0.0592,-590
1.4,0.1424,-570
1.4,0.328,-470
1.4,0.0528,-570
1.4,0.2896,-646
1.4,0.104,-606
1.4,0.2096,-646
1.4,0.0048,-510
1.4,0.1104,-502
1.4,0.1776,-586
1.4,0.2416,-566
1.4,0.0464,-582
1.4,0.248,-566
1.4,0.3536,-618
1.4,0.2224,-538
1.4,0.1168,-602
1.4,0.0624,-638
1.4,0.2256,-578
1.4,0.1456,-502
1.4,0.1264,-622
1.4,0.1904,-526
1.4,0.0432,-590
1.4,0.2224,-534
1.4,0.2224,-574
1.4,0.4368,-650
1.4,0.056,-550
1.4,0.3664,-590
1.4,0.1264,-606
1.4,0.1904,-554
1.4,0.36,-590
1.4,0.1872,-526
1.4,0.0944,-594
1.4,0.1104,-566
1.4,0.088,-642
1.4,0.1232,-578
1.4,0.0144,-518
1.4,0.2192,-526
1.4,0.312,-590
1.4,0.0176,-570
1.4,0.1968,-594
1.4,0.0112,-582
1.4,0.0976,-478
1.4,0.0976,-590
1.4,0.2032,-534
1.4,0.12,-658
1.4,0.2736,-666
1.4,0.0208,-594
1.4,0.0752,-550
1.4,0.0432,-514
1.4,0.008,-574
1.4,0.1104,-530
1.4,0.2256,-642
1.4,0.3984,-694
1.4,0.0112,-586
1.4,0.1968,-526
1.4,0.1808,-578
1.4,0.1584,-550
1.4,0.072,-622
1.4,0.1328,-566
1.4,0.1104,-630
1.4,0.056,-582
1.4,0.1872,-538
1.4,0.1104,-554
1.4,0.312,-590
1.4,0.088,-518
1.4,0.1008,-498
1.4,0.1264,-514
1.4,0.1424,-554
1.4,0.0688,-574
1.4,0.0944,-410
1.4,0.0432,-582
1.4,0.2064,-478
1.4,0.1424,-590
1.4,0.1072,-562
1.4,0.0016,-518
1.4,0.2256,-630
1.4,0.136,-618
1.4,0.1136,-606
1.4,0.024,-574
1.4,0.1168,-598
1.4,0.1136,-538
1.4,0.0048,-598
1.4,0.1936,-594
1.4,0.2992,-506
1.4,0.1936,-526
1.4,0.0432,-542
1.4,0.0368,-570
1.4,0.3024,-538
1.4,0.216,-570
1.4,0.2352,-530
1.4,0.0624,-538
1.4,0.136,-518
1.4,0.0464,-578
1.4,0.0752,-546
1.4,0.3568,-630
1.4,0.1456,-574
1.4,0.008,-546
1.4,0.2128,-574
1.4,0.0176,-550
1.4,0.0368,-606
1.4,0.2256,-618
1.4,0.0496,-482
1.4,0.264,-586
1.4,0.456,-690
1.4,0.0912,-630
1.4,0.1072,-546
1.4,0.1296,-578
1.4,0.1168,-530
1.4,0.1776,-530
1.4,0.0336,-606
1.4,0.1744,-526
1.4,0.3152,-626
1.4,0.344,-562
1.4,0.0944,-530
1.4,0.0496,-478
1.4,0.0848,-550
1.4,0.1488,-542
1.4,0.0208,-578
1.4,0.0272,-494
1.4,0.0656,-550
1.4,0.0752,-482
1.4,0.0688,-538
1.4,0.152,-610
1.4,0.1296,-586
1.4,0.0848,-502
1.4,0.0144,-562
1.4,0.136,-574
1.4,0.1744,-590
1.4,0.1424,-546
1.4,0.12,-542
1.4,0.0432,-466
1.4,0.3504,-658
1.4,0.2096,-566
1.4,0.2,-554
1.4,0.1936,-614
1.4,0.1168,-566
1.4,0.3088,-666
1.4,0.0464,-586
1.4,0.088,-630
1.4,0.1232,-494
1.4,0.3152,-550
1.4,0.104,-546
1.4,0.0976,-582
1.4,0.0848,-570
1.4,0.0272,-598
1.4,0.1904,-530
1.4,0.072,-550
1.4,0.4016,-566
1.4,0.0816,-602
1.4,0.008,-610
1.4,0.1072,-546
1.4,0.0592,-574
1.4,0.1904,-626
1.4,0.056,-594
1.4,0.168,-586
1.4,0.1936,-558
1.4,0.392,-602
1.4,0.0688,-458
1.4,0.0208,-602
1.4,0.2096,-622
1.4,0.1008,-550
1.4,0.1136,-594
1.4,0.4464,-650
1.4,0.0336,-550
1.4,0.0688,-622
1.4,0.0688,-546
1.4,0.0688,-546
1.4,0.1776,-474
1.4,0.152,-638
1.4,0.1072,-458
1.4,0.2288,-518
1.4,0.1616,-578
1.4,0.0208,-530
1.4,0.4176,-658
1.4,0.2576,-546
1.4,0.1808,-526
1.4,0.104,-590
1.4,0.04,-570
1.4,0.0432,-498
1.4,0.2832,-646
1.4,0.008,-586
1.4,0.248,-610
1.4,0.0688,-578
1.4,0.1776,-538
1.4,0.2032,-582
1.4,0.216,-558
1.4,0.1552,-630
1.4,0.0272,-518
1.4,0.1328,-550
1.4,0.0848,-558
1.4,0.0368,-498
1.4,0.1488,-602
1.4,0.2192,-574
1.4,0.1392,-550
1.4,0.1232,-482
1.4,0.2128,-518
1.4,0.0848,-538
1.4,0.0144,-554
1.4,0.1232,-566
1.4,0.1616,-506
1.4,0.12,-538
1.4,0.0208,-474
1.4,0.0016,-550
1.4,0.216,-598
1.4,0.1264,-546
1.4,0.008,-582
1.4,0.1488,-546
1.4,0.1776,-550
1.4,0.264,-558
1.4,0.4336,-538
1.4,0.1712,-502
1.4,0.5552,-706
1.4,0.1072,-586
1.4,0.088,-626
1.4,0.008,-458
1.4,0.0752,-490
1.4,0.2704,-670
1.4,0.072,-534
1.4,0.3952,-582
1.4,0.1296,-598
1.4,0.1904,-630
1.4,0.0208,-566
1.4,0.0464,-634
1.4,0.2128,-566
1.4,0.0496,-530
1.4,0.136,-538
1.4,0.056,-594
1.4,0.0112,-514
1.4,0.1296,-542
1.4,0.0176,-518
1.4,0.04,-530
1.4,0.0656,-510
1.4,0.1584,-666
1.4,0.056,-566
1.4,0.008,-618
1.4,0.1648,-558
1.4,0.1872,-526
1.4,0.056,-590
1.4,0.2896,-578
1.4,0.0656,-574
1.4,0.0272,-538
1.4,0.072,-610
1.4,0.3536,-594
1.4,0.1808,-602
1.4,0.1552,-626
1.4,0.008,-574
1.4,0.0112,-466
1.4,0.1904,-630
1.4,0.0496,-598
1.4,0.1712,-506
1.4,0.1712,-578
1.4,0.152,-538
1.4,0.1456,-574
1.4,0.1168,-590
1.4,0.1232,-586
1.4,0.3824,-614
1.4,0.0048,-618
1.4,0.0848,-542
1.4,0.0592,-482
1.4,0.0656,-606
1.4,0.3984,-630
1.4,0.0304,-586
1.4,0.2128,-574
1.4,0.0496,-542
1.4,0.1264,-586
1.4,0.1776,-562
1.4,0.3728,-594
1.4,0.168,-662
1.4,0.0336,-550
1.4,0.1328,-578
1.4,0.1552,-614
1.4,0.4016,-558
1.4,0.0144,-538
1.4,0.008,-482
1.4,0.2864,-566
1.4,0.1584,-598
1.4,0.088,-562
1.4,0.1712,-622
1.4,0.0624,-514
1.4,0.296,-578
1.4,0.1936,-554
1.4,0.0208,-538
1.4,0.1392,-598
1.4,0.2096,-522
1.4,0.2928,-618
1.4,0.0752,-618
1.4,0.4368,-642
1.4,0.152,-574
1.4,0.2192,-590
1.4,0.0944,-554
1.4,0.0368,-474
1.4,0.0016,-526
1.4,0.1488,-574
1.4,0.1008,-550
1.4,0.1264,-614
1.4,0.1136,-590
1.4,0.2256,-634
1.4,0.2864,-582
1.4,0.104,-678
1.4,0.056,-614
1.4,0.0432,-442
1.4,0.2864,-646
1.4,0.1904,-574
1.4,0.0528,-554
1.4,0.3088,-590
1.4,0.1552,-626
1.4,0.024,-498
1.4,0.0208,-522
1.4,0.0912,-598
1.4,0.28,-634
1.4,0.1328,-498
1.4,0.1552,-582
1.4,0.0144,-614
1.4,0.0144,-574
1.4,0.0656,-542
1.4,0.1968,-518
1.4,0.2352,-534
1.4,0.392,-570
1.4,0.168,-542
1.4,0.12,-542
1.4,0.0432,-646
1.4,0.2672,-554
1.4,0.0144,-642
1.4,0.0912,-534
1.4,0.2128,-570
1.4,0.2384,-574
1.4,0.0048,-538
1.4,0.008,-606
1.4,0.04,-546
1.4,0.0784,-498
1.4,0.1456,-630
1.4,0.0304,-490
1.4,0.0656,-494
1.4,0.1616,-606
1.4,0.1136,-626
1.4,0.0432,-458
1.4,0.024,-522
1.4,0.0848,-486
1.4,0.12,-574
1.4,0.3504,-610
1.4,0.3984,-622
1.4,0.2576,-566
1.4,0.0816,-522
1.4,0.1488,-578
1.4,0.0144,-558
1.4,0.0432,-538
1.4,0.2992,-514
1.4,0.0176,-506
1.4,0.1424,-566
1.4,0.1296,-566
1.4,0.0592,-558
1.4,0.1808,-682
1.4,0.0432,-498
1.4,0.0208,-534
1.4,0.0688,-530
1.4,0.0496,-594
1.4,0.216,-622
1.4,0.1488,-486
1.4,0.3088,-602
1.4,0.0432,-558
1.4,0.0464,-566
1.4,0.4112,-602
1.4,0.1392,-618
1.4,0.1968,-530
1.4,0.3152,-658
1.4,0.056,-554
1.4,0.0208,-622
1.4,0.1648,-606
1.4,0.0944,-542
1.4,0.1072,-598
1.4,0.2,-562
1.4,0.0784,-474
1.4,0.152,-594
1.4,0.152,-622
1.4,0.0848,-582
1.4,0.3152,-594
1.4,0.0272,-538
1.4,0.12,-578
1.4,0.2064,-610
1.4,0.024,-586
1.4,0.024,-498
1.4,0.3376,-614
1.4,0.1776,-562
1.4,0.2736,-586
1.4,0.3408,-570
1.4,0.0496,-566
1.4,0.2,-534
1.4,0.088,-530
1.4,0.2032,-542
1.4,0.2064,-574
1.4,0.0848,-626
1.4,0.36,-582
1.4,0.088,-626
1.4,0.1744,-602
1.4,0.0368,-598
1.4,0.1648,-538
1.4,0.2288,-622
1.4,0.248,-622
1.4,0.408,-642
1.4,0.328,-518
1.4,0.04,-654
1.4,0.0208,-522
1.4,0.1712,-602
1.4,0.024,-598
1.4,0.0624,-630
1.4,0.1264,-570
1.4,0.0112,-438
1.4,0.3504,-610
1.4,0.136,-642
1.4,0.184,-554
1.4,0.2096,-574
1.4,0.184,-482
1.4,0.0688,-586
1.4,0.152,-594
1.4,0.0688,-658
1.4,0.0016,-494
1.4,0.1584,-594
1.4,0.184,-586
1.4,0.072,-518
1.4,0.3248,-646
1.4,0.0336,-566
1.4,0.1168,-610
1.4,0.104,-582
1.4,0.0464,-582
1.4,0.1008,-562
1.4,0.1776,-546
1.4,0.2352,-682
1.4,0.0112,-534
1.4,0.104,-562
1.4,0.0656,-526
1.4,0.0816,-554
1.4,0.3088,-590
1.4,0.12,-614
1.4,0.1776,-546
1.4,0.2288,-558
1.4,0.1616,-602
1.4,0.0528,-638
1.4,0.0688,-554
1.4,0.0592,-614
1.4,0.0016,-482
1.4,0.008,-598
1.4,0.1168,-530
1.4,0.0912,-538
1.4,0.0208,-622
1.4,0.232,-610
1.4,0.0528,-658
1.4,0.1616,-490
1.4,0.0944,-578
1.4,0.0112,-566
1.4,0.024,-614
1.4,0.0272,-570
1.4,0.0464,-586
1.4,0.1328,-650
1.4,0.0912,-530
1.4,0.0464,-434
1.4,0.3696,-638
1.4,0.0048,-498
1.4,0.2768,-574
1.4,0.296,-662
1.4,0.2192,-554
1.4,0.0176,-550
1.4,0.0816,-546
1.4,0.2896,-614
1.4,0.0688,-534
1.4,0.1328,-522
1.4,0.3504,-606
1.4,0.0304,-578
1.4,0.1648,-526
1.4,0.2,-510
1.4,0.1776,-618
1.4,0.1136,-610
1.4,0.3216,-538
1.4,0.0432,-514
1.4,0.0688,-506
1.4,0.1776,-558
1.4,0.0944,-542
1.4,0.072,-506
1.4,0.2736,-582
1.4,0.0016,-558
1.4,0.232,-546
1.4,0.072,-498
1.4,0.0848,-594
1.4,0.0304,-622
1.4,0.2576,-486
1.4,0.1744,-630
1.4,0.2416,-546
1.4,0.344,-682
1.4,0.0016,-566
1.4,0.232,-530
1.4,0.2032,-510
1.4,0.088,-522
1.4,0.0336,-530
1.4,0.152,-510
1.4,0.1776,-518
1.4,0.1392,-546
1.4,0.0624,-574
1.4,0.0432,-558
1.4,0.1456,-554
1.4,0.2608,-618
1.4,0.024,-594
1.4,0.0016,-478
1.4,0.0176,-558
1.4,0.1392,-514
1.4,0.0496,-586
1.4,0.0144,-482
1.4,0.056,-598
1.4,0.0208,-522
1.4,0.0176,-586
1.4,0.1968,-610
1.4,0.104,-618
1.4,0.1424,-614
1.4,0.0944,-510
1.4,0.1232,-578
1.4,0.0656,-618
1.4,0.0304,-558
1.4,0.1808,-546
1.4,0.264,-586
1.4,0.0816,-494
1.4,0.1136,-574
1.4,0.2992,-530
1.4,0.0144,-506
1.4,0.024,-618
1.4,0.0784,-586
1.4,0.2096,-562
1.4,0.0368,-586
1.4,0.04,-546
1.4,0.1936,-558
1.4,0.1296,-574
1.4,0.0272,-522
1.4,0.2448,-590
1.4,0.0784,-654
1.4,0.1328,-510
1.4,0.024,-562
1.4,0.0592,-506
1.4,0.1264,-654
1.4,0.0624,-586
1.4,0.0784,-618
1.4,0.2768,-534
1.4,0.0976,-558
1.4,0.248,-534
1.4,0.0272,-610
1.4,0.0912,-586
1.4,0.0272,-482
1.4,0.04,-542
1.4,0.0784,-614
1.4,0.1776,-590
1.4,0.1296,-614
1.4,0.0336,-546
1.4,0.1072,-542
1.4,0.0304,-570
1.4,0.1776,-618
1.4,0.12,-534
1.4,0.4048,-558
1.4,0.0496,-546
1.4,0.1552,-566
1.4,0.3952,-650
1.4,0.0976,-582
1.4,0.0368,-590
1.4,0.1072,-482
1.4,0.0592,-554
1.4,0.2192,-542
1.4,0.1872,-534
1.4,0.04,-450
1.4,0.024,-630
1.4,0.0784,-594
1.4,0.0016,-550
1.4,0.0528,-614
1.4,0.1488,-662
1.4,0.392,-586
1.4,0.184,-638
1.4,0.0624,-514
1.4,0.2992,-650
1.4,0.1744,-510
1.4,0.04,-494
1.4,0.0144,-486
1.4,0.312,-694
1.4,0.2928,-550
1.4,0.1424,-586
1.4,0.0752,-570
1.4,0.2544,-558
1.4,0.1008,-566
1.4,0.328,-530
1.4,0.12,-542
1.4,0.248,-650
1.4,0.1456,-554
1.4,0.024,-594
1.4,0.1552,-554
1.4,0.0816,-562
1.4,0.0048,-594
1.4,0.088,-590
1.4,0.0944,-578
1.4,0.1168,-494
1.4,0.1104,-574
1.4,0.1936,-598
1.4,0.424,-606
1.4,0.1232,-594
1.4,0.1712,-478
1.4,0.0272,-538
1.4,0.1456,-554
1.4,0.136,-446
1.4,0.0176,-494
1.4,0.0912,-530
1.4,0.0528,-550
1.4,0.44,-682
1.4,0.2096,-574
1.4,0.1648,-550
1.4,0.0048,-594
1.4,0.1488,-482
1.4,0.088,-538
1.4,0.04,-530
1.4,0.3216,-574
1.4,0.072,-546
1.4,0.2288,-606
1.4,0.3952,-654
1.4,0.3408,-654
1.4,0.0304,-542
1.4,0.0208,-610
1.4,0.072,-522
1.4,0.1072,-578
1.4,0.0016,-578
1.4,0.1296,-522
1.4,0.152,-634
1.4,0.2192,-582
1.4,0.0752,-562
1.4,0.2256,-562
1.4,0.2672,-566
1.4,0.0304,-562
1.4,0.2192,-542
1.4,0.1616,-570
1.4,0.1616,-582
1.4,0.376,-626
1.4,0.0208,-574
1.4,0.0464,-586
1.4,0.4048,-626
1.4,0.0464,-462
1.4,0.28,-626
1.4,0.1872,-462
1.4,0.0208,-594
1.4,0.1328,-590
1.4,0.072,-514
1.4,0.0944,-542
1.4,0.0432,-606
1.4,0.1232,-526
1.4,0.12,-434
1.4,0.0848,-514
1.4,0.3664,-586
1.4,0.1744,-606
1.4,0.0368,-562
1.4,0.0656,-550
1.4,0.1712,-550
1.4,0.2288,-486
1.4,0.2352,-542
1.4,0.0912,-510
1.4,0.1104,-506
1.4,0.0816,-502
1.4,0.0688,-666
1.4,0.056,-602
1.4,0.1648,-666
1.4,0.04,-566
1.4,0.0944,-530
1.4,0.1456,-530
1.4,0.3472,-570
1.4,0.056,-526
1.4,0.0432,-518
1.4,0.0144,-518
1.4,0.0816,-506
1.4,0.1456,-586
1.4,0.1296,-650
1.4,0.0656,-534
1.4,0.0048,-558
1.4,0.1328,-510
1.4,0.1008,-566
1.4,0.0272,-498
1.4,0.1008,-630
1.4,0.3504,-542
1.4,0.0752,-598
1.4,0.2512,-578
1.4,0.36,-678
1.4,0.1392,-602
1.4,0.1232,-494
1.4,0.1488,-498
1.4,0.0016,-498
1.4,0.0688,-530
1.4,0.0176,-522
1.4,0.2448,-598
1.4,0.0336,-522
1.4,0.216,-542
1.4,0.1296,-574
1.4,0.136,-618
1.4,0.0208,-574
1.4,0.0944,-634
1.4,0.152,-626
1.4,0.0208,-598
1.4,0.0752,-538
1.4,0.1488,-526
1.4,0.3248,-522
1.4,0.0304,-482
1.4,0.0016,-526
1.4,0.1008,-498
1.4,0.1072,-602
1.4,0.232,-654
1.4,0.3856,-654
1.4,0.0144,-554
1.4,0.184,-558
1.4,0.2032,-630
1.4,0.0016,-550
1.4,0.0112,-586
1.4,0.0592,-530
1.4,0.0208,-550
1.4,0.0944,-530
1.4,0.0624,-514
1.4,0.1136,-622
1.4,0.0016,-562
1.4,0.12,-514
1.4,0.0464,-582
1.4,0.072,-514
1.4,0.0912,-526
1.4,0.1232,-566
1.4,0.1264,-518
1.4,0.1648,-562
1.4,0.392,-598
1.4,0.0848,-598
1.4,0.0272,-542
1.4,0.0432,-462
1.4,0.344,-630
1.4,0.1168,-634
1.4,0.0176,-606
1.4,0.0624,-494
1.4,0.2128,-642
1.4,0.1168,-622
1.4,0.0176,-538
1.4,0.2352,-626
1.4,0.088,-558
1.4,0.1072,-626
1.4,0.2672,-582
1.4,0.0208,-578
1.4,0.1616,-486
1.4,0.0048,-594
1.4,0.072,-498
1.4,0.0496,-554
1.4,0.1328,-546
1.4,0.1712,-566
1.4,0.1744,-530
1.4,0.4496,-662
1.4,0.2032,-586
1.4,0.232,-574
1.4,0.2064,-494
1.4,0.3376,-586
1.4,0.1392,-634
1.4,0.2608,-610
1.4,0.2288,-554
1.4,0.0848,-594
1.4,0.0688,-486
1.4,0.0528,-562
1.4,0.0176,-606
1.4,0.0368,-554
1.4,0.0144,-534
1.4,0.1136,-414
1.4,0.0432,-590
1.4,0.2,-566
1.4,0.0976,-566
1.4,0.1104,-602
1.4,0.2928,-526
1.4,0.312,-570
1.4,0.4528,-622
1.4,0.248,-538
1.4,0.1232,-486
1.4,0.1488,-578
1.4,0.056,-606
1.4,0.0304,-546
1.4,0.1328,-534
1.4,0.1392,-494
1.4,0.2448,-530
1.4,0.0688,-438
1.4,0.1552,-618
1.4,0.0752,-586
1.4,0.3024,-646
1.4,0.0016,-486
1.4,0.1136,-634
1.4,0.1456,-606
1.4,0.0752,-602
1.4,0.088,-606
1.4,0.2608,-522
1.4,0.2064,-602
1.4,0.1104,-626
1.4,0.2896,-566
1.4,0.3152,-586
1.4,0.2064,-690
1.4,0.1232,-494
1.4,0.0496,-614
1.4,0.2864,-602
1.4,0.0016,-562
1.4,0.1936,-606
1.4,0.3568,-586
1.4,0.1136,-530
1.4,0.1072,-410
1.4,0.1264,-602
1.4,0.072,-578
1.4,0.264,-614
1.4,0.264,-550
1.4,0.0208,-542
1.4,0.0976,-542
1.4,0.1392,-546
1.4,0.2192,-574
1.4,0.1232,-510
1.4,0.0656,-542
1.4,0.264,-638
1.4,0.3088,-566
1.4,0.3024,-618
1.4,0.136,-510
1.4,0.2032,-634
1.4,0.1776,-706
1.4,0.0368,-574
1.4,0.1808,-614
1.4,0.3408,-578
1.4,0.008,-554
1.4,0.1552,-654
1.4,0.0016,-554
1.4,0.1104,-550
1.4,0.1232,-602
1.4,0.1968,-570
1.4,0.2384,-498
1.4,0.0272,-554
1.4,0.1936,-566
1.4,0.0304,-550
1.4,0.1104,-562
1.4,0.0112,-530
1.4,0.1552,-638
1.4,0.072,-582
1.4,0.2256,-582
1.4,0.1008,-578
1.4,0.072,-602
1.4,0.296,-662
1.4,0.0784,-598
1.4,0.2896,-638
1.4,0.0048,-542
1.4,0.2032,-570
1.4,0.2288,-618
1.4,0.3344,-614
1.4,0.04,-454
1.4,0.0976,-602
1.4,0.2192,-550
1.4,0.1456,-674
1.4,0.0592,-598
1.4,0.3184,-594
1.4,0.3824,-578
1.4,0.2704,-602
1.4,0.0304,-470
1.4,0.4784,-542
1.4,0.0848,-598
1.4,0.1104,-542
1.4,0.1584,-630
1.4,0.0304,-542
1.4,0.2288,-590
1.4,0.2384,-510
1.4,0.0848,-522
1.4,0.1648,-514
1.4,0.136,-470
1.4,0.0816,-590
1.4,0.0112,-598
1.4,0.0144,-582
1.4,0.0432,-598
1.4,0.1968,-554
1.4,0.1296,-566
1.4,0.1392,-578
1.4,0.0784,-682
1.4,0.1744,-638
1.4,0.168,-550
1.4,0.1328,-530
1.4,0.328,-594
1.4,0.184,-534
1.4,0.0656,-538
1.4,0.0656,-482
1.4,0.456,-698
1.4,0.072,-594
1.4,0.1968,-562
1.4,0.3184,-570
1.4,0.1136,-454
1.4,0.0272,-574
1.4,0.0976,-594
1.4,0.0176,-522
1.4,0.248,-602
1.4,0.04,-534
1.4,0.1136,-618
1.4,0.136,-526
1.4,0.1104,-562
1.4,0.4176,-666
1.4,0.1648,-490
1.4,0.2352,-510
1.4,0.0528,-458
1.4,0.0496,-582
1.4,0.024,-502
1.4,0.0944,-598
1.4,0.1584,-458
1.4,0.008,-618
1.4,0.2064,-622
1.4,0.0432,-514
1.4,0.0624,-570
1.4,0.1872,-630
1.4,0.2384,-562
1.4,0.0048,-522
1.4,0.3568,-602
1.4,0.2512,-598
1.4,0.232,-602
1.4,0.2768,-602
1.4,0.1488,-562
1.4,0.248,-502
1.4,0.1808,-602
1.4,0.1904,-594
1.4,0.0816,-586
1.4,0.1744,-622
1.4,0.1168,-526
1.4,0.088,-594
1.4,0.0688,-546
1.4,0.3888,-634
1.4,0.12,-554
1.4,0.0304,-518
1.4,0.0816,-550
1.4,0.1296,-514
1.4,0.024,-534
1.4,0.072,-594
1.4,0.1712,-578
1.4,0.1136,-626
1.4,0.1264,-558
1.4,0.1488,-606
1.4,0.216,-546
1.4,0.1968,-570
1.4,0.0144,-518
1.4,0.248,-682
1.4,0.0912,-514
1.4,0.1232,-538
1.4,0.0016,-586
1.4,0.0976,-458
1.4,0.1424,-534
1.4,0.1328,-454
1.4,0.008,-654
1.4,0.0816,-550
1.4,0.0656,-578
1.4,0.184,-530
1.4,0.0208,-650
1.4,0.1264,-538
1.4,0.1488,-458
1.4,0.168,-634
1.4,0.1136,-578
1.4,0.072,-562
1.4,0.36,-614
1.4,0.0848,-586
1.4,0.008,-586
1.4,0.056,-466
1.4,0.2576,-610
1.4,0.0144,-618
1.4,0.1936,-602
1.4,0.2096,-578
1.4,0.3184,-642
1.4,0.1104,-514
1.4,0.2992,-542
1.4,0.0272,-482
1.4,0.0464,-522
1.4,0.0592,-562
1.4,0.0144,-542
1.4,0.136,-466
1.4,0.1648,-618
1.4,0.1104,-570
1.4,0.1968,-530
1.4,0.1296,-482
1.4,0.0848,-642
1.4,0.0176,-582
1.4,0.152,-538
1.4,0.4144,-658
1.4,0.0976,-530
1.4,0.072,-606
1.4,0.3344,-598
1.4,0.2064,-638
1.4,0.1072,-578
1.4,0.0208,-542
1.4,0.3504,-578
1.4,0.2096,-522
1.4,0.104,-662
1.4,0.2128,-578
1.4,0.0016,-566
1.4,0.2928,-542
1.4,0.1264,-606
1.4,0.136,-626
1.4,0.2032,-606
1.4,0.0432,-542
1.4,0.0944,-586
1.4,0.1296,-506
1.4,0.0624,-614
1.4,0.0944,-510
1.4,0.1488,-602
1.4,0.1392,-502
1.4,0.2992,-562
1.4,0.0176,-694
1.4,0.2032,-642
1.4,0.12,-458
1.4,0.2448,-666
1.4,0.136,-526
1.4,0.2832,-594
1.4,0.3216,-638
1.4,0.1328,-578
1.4,0.0528,-498
1.4,0.008,-574
1.4,0.1456,-542
1.4,0.2896,-550
1.4,0.2384,-574
1.4,0.104,-514
1.4,0.0336,-526
1.4,0.1936,-526
1.4,0.4912,-614
1.4,0.232,-486
1.4,0.2768,-546
1.4,0.0464,-550
1.4,0.0176,-534
1.4,0.1648,-502
1.4,0.168,-526
1.4,0.3312,-678
1.4,0.1584,-650
1.4,0.0496,-470
1.4,0.1008,-594
1.4,0.2192,-586
1.4,0.0176,-586
1.4,0.0048,-526
1.4,0.1872,-458
1.4,0.1264,-542
1.4,0.3152,-594
1.4,0.1616,-614
1.4,0.0688,-570
1.4,0.0688,-582
1.4,0.232,-542
1.4,0.2384,-638
1.4,0.2064,-542
1.4,0.1104,-550
1.4,0.1104,-574
1.4,0.0464,-594
1.4,0.1904,-498
1.4,0.0336,-566
1.4,0.12,-598
1.4,0.168,-642
1.4,0.4208,-658
1.4,0.1584,-626
1.4,0.1808,-582
1.4,0.088,-458
1.4,0.1008,-522
1.4,0.0112,-566
1.4,0.1936,-546
1.4,0.0656,-518
1.4,0.1744,-502
1.4,0.2288,-602
1.4,0.392,-590
1.4,0.104,-562
1.4,0.104,-578
1.4,0.0848,-606
1.4,0.0432,-526
1.4,0.152,-582
1.4,0.0176,-570
1.4,0.1136,-526
1.4,0.232,-522
1.4,0.264,-638
1.4,0.3792,-670
1.4,0.1328,-626
1.4,0.104,-586
1.4,0.008,-602
1.4,0.0624,-522
1.4,0.1936,-606
1.4,0.1424,-538
1.4,0.056,-486
1.4,0.1104,-618
1.4,0.216,-542
1.4,0.0048,-574
1.4,0.1776,-486
1.4,0.1136,-554
1.4,0.0592,-618
1.4,0.0048,-658
1.4,0.0048,-610
1.4,0.0976,-510
1.4,0.0272,-558
1.4,0.1296,-562
1.4,0.0176,-422
1.4,0.0496,-574
1.4,0.2832,-598
1.4,0.1072,-566
1.4,0.0144,-538
1.4,0.3152,-542
1.4,0.1488,-558
1.4,0.2064,-546
1.4,0.1488,-534
1.4,0.184,-614
1.4,0.3344,-590
1.4,0.0592,-594
1.4,0.1712,-550
1.4,0.1968,-506
1.4,0.3088,-658
1.4,0.1392,-566
1.4,0.2032,-602
1.4,0.1232,-506
1.4,0.0304,-570
1.4,0.1552,-634
1.4,0.0784,-494
1.4,0.2544,-602
1.4,0.0432,-574
1.4,0.0816,-570
1.4,0.4336,-654
1.4,0.0304,-538
1.4,0.0944,-470
1.4,0.2128,-618
1.4,0.12,-574
1.4,0.0432,-578
1.4,0.1168,-654
1.4,0.1328,-462
1.4,0.0048,-622
1.4,0.024,-534
1.4,0.0752,-542
1.4,0.0784,-574
1.4,0.024,-578
1.4,0.1808,-514
1.4,0.0368,-542
1.4,0.0272,-594
1.4,0.0432,-594
1.4,0.1168,-602
1.4,0.1008,-670
1.4,0.0112,-542
1.4,0.0208,-546
1.4,0.1168,-538
1.4,0.2704,-574
1.4,0.3024,-578
1.4,0.024,-638
1.4,0.1008,-610
1.4,0.0144,-638
1.4,0.0016,-622
1.4,0.0112,-638
1.4,0.04,-522
1.4,0.0304,-610
1.4,0.296,-578
1.4,0.2864,-526
1.4,0.1712,-586
1.4,0.024,-626
1.4,0.152,-486
1.4,0.2288,-582
1.4,0.0496,-546
1.4,0.0848,-582
1.4,0.0816,-458
1.4,0.0048,-490
1.4,0.1424,-514
1.4,0.1168,-570
1.4,0.0016,-506
1.4,0.024,-562
1.4,0.2544,-606
1.4,0.0784,-666
1.4,0.2736,-582
1.4,0.0912,-582
1.4,0.1552,-562
1.4,0.2864,-542
1.4,0.0528,-522
1.4,0.296,-518
1.4,0.0496,-498
1.4,0.0368,-618
1.4,0.2352,-570
1.4,0.056,-566
1.4,0.0112,-490
1.4,0.3504,-558
1.4,0.2032,-654
1.4,0.0816,-610
1.4,0.1168,-642
1.4,0.2544,-550
1.4,0.1872,-546
1.4,0.216,-554
1.4,0.024,-602
1.4,0.1552,-554
1.4,0.0496,-482
1.4,0.2768,-526
1.4,0.0816,-534
1.4,0.008,-534
1.4,0.0944,-474
1.4,0.2384,-554
1.4,0.0592,-494
1.4,0.056,-598
1.4,0.1456,-566
1.4,0.0816,-574
1.4,0.0656,-570
1.4,0.0016,-582
1.4,0.0784,-614
1.4,0.1392,-642
1.4,0.0272,-590
1.4,0.2384,-582
1.4,0.0976,-474
1.4,0.232,-530
1.4,0.0656,-430
1.4,0.008,-574
1.4,0.0176,-558
1.4,0.2736,-626
1.4,0.0048,-646
1.4,0.0976,-546
1.4,0.0784,-590
1.4,0.1456,-566
1.4,0.0304,-522
1.4,0.0752,-618
1.4,0.2576,-650
1.4,0.1552,-634
1.4,0.2992,-598
1.4,0.1456,-542
1.4,0.2864,-614
1.4,0.0656,-582
1.4,0.2416,-570
1.4,0.0368,-466
1.4,0.3344,-606
1.4,0.1328,-538
1.4,0.024,-578
1.4,0.1008,-550
1.4,0.2096,-542
1.4,0.1456,-518
1.4,0.0016,-554
1.4,0.2416,-574
1.4,0.2256,-606
1.4,0.2288,-626
1.4,0.0016,-570
1.4,0.008,-526
1.4,0.0496,-598
1.4,0.0912,-546
1.4,0.36,-598
1.4,0.0624,-658
1.4,0.0976,-582
1.4,0.2512,-646
1.4,0.1744,-546
1.4,0.0624,-498
1.4,0.2448,-522
1.4,0.1392,-674
1.4,0.0816,-554
1.4,0.088,-510
1.4,0.0112,-606
1.4,0.0784,-574
1.4,0.088,-570
1.4,0.0688,-566
1.4,0.1072,-494
1.4,0.1008,-594
1.4,0.3792,-658
1.4,0.0656,-486
1.4,0.0912,-534
1.4,0.0752,-542
1.4,0.1104,-554
1.4,0.0272,-610
1.4,0.0176,-586
1.4,0.1296,-566
1.4,0.4496,-602
1.4,0.248,-658
1.4,0.1424,-562
1.4,0.1168,-610
1.4,0.232,-650
1.4,0.0624,-502
1.4,0.1616,-562
1.4,0.1488,-574
1.4,0.0336,-522
1.4,0.0048,-538
1.4,0.2224,-626
1.4,0.2832,-678
1.4,0.2128,-618
1.4,0.0944,-634
1.4,0.0272,-558
1.4,0.0688,-598
1.4,0.1616,-642
1.4,0.1328,-514
1.4,0.136,-594
1.4,0.1008,-518
1.4,0.0176,-566
1.4,0.1008,-522
1.4,0.0944,-490
1.4,0.0208,-586
1.4,0.0048,-574
1.4,0.1104,-566
1.4,0.0752,-550
1.4,0.0144,-570
1.4,0.2064,-550
1.4,0.0336,-538
1.4,0.1808,-562
1.4,0.0464,-634
1.4,0.2256,-610
1.4,0.0784,-602
1.4,0.0848,-566
1.4,0.024,-494
1.4,0.104,-554
1.4,0.28,-578
1.4,0.0432,-606
1.4,0.1072,-566
1.4,0.1552,-558
1.4,0.2416,-598
1.4,0.104,-586
1.4,0.1104,-542
1.4,0.0016,-558
1.4,0.0048,-518
1.4,0.2352,-526
1.4,0.1776,-658
1.4,0.0624,-526
1.4,0.0624,-562
1.4,0.0592,-578
1.4,0.0592,-542
1.4,0.0496,-590
1.4,0.0144,-462
1.4,0.4272,-594
1.4,0.1232,-630
1.4,0.0976,-514
1.4,0.5744,-650
1.4,0.0688,-630
1.4,0.0208,-486
1.4,0.1808,-598
1.4,0.1168,-494
1.4,0.1424,-542
1.4,0.0272,-526
1.4,0.1488,-550
1.4,0.1744,-490
1.4,0.2608,-530
1.4,0.1008,-474
1.4,0.0592,-578
1.4,0.1616,-578
1.4,0.3504,-562
1.4,0.1648,-582
1.4,0.2416,-538
1.4,0.0464,-542
1.4,0.1648,-562
1.4,0.248,-742
1.4,0.0944,-522
1.4,0.1264,-622
1.4,0.1296,-546
1.4,0.0784,-486
1.4,0.1616,-618
1.4,0.1712,-554
1.4,0.1872,-530
1.4,0.2576,-606
1.4,0.1168,-562
1.4,0.1456,-582
1.4,0.0688,-558
1.4,0.2864,-594
1.4,0.1392,-594
1.4,0.0688,-650
1.4,0.0176,-570
1.4,0.1168,-646
1.4,0.2128,-578
1.4,0.2864,-638
1.4,0.0912,-546
1.4,0.136,-602
1.4,0.328,-602
1.4,0.2832,-606
1.4,0.0368,-530
1.4,0.2352,-534
1.4,0.28,-578
1.4,0.0496,-554
1.4,0.1392,-582
1.4,0.0368,-610
1.4,0.2064,-606
1.4,0.0688,-590
1.4,0.168,-606
1.4,0.1744,-610
1.4,0.376,-630
1.4,0.104,-570
1.4,0.3632,-626
1.4,0.2224,-418
1.4,0.0752,-610
1.4,0.1392,-486
1.4,0.0976,-570
1.4,0.0464,-542
1.4,0.1808,-546
1.4,0.3312,-606
1.4,0.0336,-602
1.4,0.184,-470
1.4,0.1392,-578
1.4,0.0752,-506
1.4,0.1232,-510
1.4,0.1488,-498
1.4,0.3184,-686
1.4,0.1648,-530
1.4,0.152,-562
1.4,0.2512,-606
1.4,0.0784,-494
1.4,0.3216,-562
1.4,0.1552,-610
1.4,0.1552,-538
1.4,0.2192,-582
1.4,0.2672,-618
1.4,0.1424,-534
1.4,0.0816,-630
1.4,0.0048,-558
1.4,0.088,-418
1.4,0.0464,-514
1.4,0.2384,-622
1.4,0.2224,-658
1.4,0.0048,-562
1.4,0.216,-586
1.4,0.2064,-614
1.4,0.2992,-586
1.4,0.1296,-598
1.4,0.2,-602
1.4,0.2192,-526
1.4,0.264,-606
1.4,0.0688,-578
1.4,0.1264,-670
1.4,0.0304,-498
1.4,0.3088,-666
1.4,0.3792,-658
1.4,0.1552,-582
1.4,0.104,-518
1.4,0.0432,-562
1.4,0.296,-582
1.4,0.0688,-606
1.4,0.0112,-590
1.4,0.3344,-626
1.4,0.0112,-510
1.4,0.2032,-510
1.4,0.0848,-550
1.4,0.072,-538
1.4,0.0432,-594
1.4,0.0176,-578
1.4,0.0336,-610
1.4,0.2832,-550
1.4,0.0656,-598
1.4,0.0176,-550
1.4,0.0368,-570
1.4,0.2096,-554
1.4,0.1456,-578
1.4,0.408,-594
1.4,0.1072,-546
1.4,0.072,-574
1.4,0.1232,-530
1.4,0.0464,-602
1.4,0.0784,-510
1.4,0.0176,-526
1.4,0.2064,-630
1.4,0.0016,-530
1.4,0.0496,-538
1.4,0.152,-522
1.4,0.1584,-554
1.4,0.0272,-526
1.4,0.072,-646
1.4,0.3984,-594
1.4,0.008,-506
1.4,0.104,-502
1.4,0.2992,-622
1.4,0.0752,-534
1.4,0.024,-582
1.4,0.4592,-670
1.4,0.0784,-542
1.4,0.1456,-730
1.4,0.1808,-522
1.4,0.0432,-530
1.4,0.376,-602
1.4,0.1648,-662
1.4,0.184,-550
1.4,0.1392,-634
1.4,0.2608,-606
1.4,0.0272,-574
1.4,0.0144,-530
1.4,0.2448,-534
1.4,0.1456,-498
1.4,0.0752,-602
1.4,0.1872,-506
1.4,0.1392,-574
1.4,0.1008,-602
1.4,0.0656,-518
1.4,0.1936,-486
1.4,0.0144,-470
1.4,0.0176,-658
1.4,0.0208,-478
1.4,0.2448,-514
1.4,0.0272,-546
1.4,0.1808,-626
1.4,0.0112,-550
1.4,0.0752,-510
1.4,0.0432,-674
1.4,0.0272,-554
1.4,0.0944,-546
1.4,0.1136,-546
1.4,0.4976,-638
1.4,0.0592,-630
1.4,0.04,-534
1.4,0.0944,-558
1.4,0.1392,-598
1.4,0.1872,-562
1.4,0.2064,-582
1.4,0.1872,-530
1.4,0.28,-530
1.4,0.0688,-546
1.4,0.0368,-582
1.4,0.1424,-510
1.4,0.0176,-582
1.4,0.136,-538
1.4,0.056,-562
1.4,0.0848,-530
1.4,0.0048,-526
1.4,0.1744,-650
1.4,0.1392,-570
1.4,0.136,-622
1.4,0.0528,-574
1.4,0.2096,-590
1.4,0.1552,-462
1.4,0.2448,-574
1.4,0.2064,-554
1.4,0.088,-490
1.4,0.0624,-534
1.4,0.4144,-634
1.4,0.04,-566
1.4,0.1648,-506
1.4,0.0816,-566
1.4,0.1392,-574
1.4,0.2352,-582
1.4,0.0016,-522
1.4,0.1648,-534
1.4,0.168,-606
1.4,0.0272,-522
1.4,0.1456,-550
1.4,0.1424,-506
1.4,0.1168,-506
1.4,0.2256,-562
1.4,0.104,-530
1.4,0.1168,-486
1.4,0.1328,-558
1.4,0.168,-554
1.4,0.024,-546
1.4,0.072,-478
1.4,0.104,-546
1.4,0.0496,-506
1.4,0.1456,-558
1.4,0.0464,-646
1.4,0.104,-558
1.4,0.184,-546
1.4,0.1904,-490
1.4,0.3856,-642
1.4,0.0592,-534
1.4,0.0144,-494
1.4,0.1904,-538
1.4,0.0624,-514
1.4,0.1232,-582
1.4,0.3312,-554
1.4,0.0944,-618
1.4,0.1968,-522
1.4,0.104,-606
1.4,0.184,-570
1.4,0.1936,-614
1.4,0.1936,-606
1.4,0.1296,-514
1.4,0.1008,-606
1.4,0.3824,-630
1.4,0.2832,-662
1.4,0.1616,-606
1.4,0.104,-554
1.4,0.0784,-634
1.4,0.2448,-626
1.4,0.1584,-510
1.4,0.184,-626
1.4,0.0464,-474
1.4,0.0112,-514
1.4,0.2416,-558
1.4,0.0208,-574
1.4,0.1456,-566
1.4,0.1488,-586
1.4,0.3088,-582
1.4,0.056,-542
1.4,0.3184,-602
1.4,0.0432,-518
1.4,0.3216,-626
1.4,0.0944,-538
1.4,0.1712,-622
1.4,0.0464,-446
1.4,0.0304,-598
1.4,0.2832,-658
1.4,0.0848,-558
1.4,0.1424,-494
1.4,0.0656,-530
1.4,0.008,-478
1.4,0.1648,-602
1.4,0.1616,-518
1.4,0.1008,-574
1.4,0.2544,-610
1.4,0.1104,-602
1.4,0.2608,-562
1.4,0.1744,-570
1.4,0.0048,-570
1.4,0.1264,-470
1.4,0.008,-450
1.4,0.056,-542
1.4,0.1232,-522
1.4,0.072,-538
1.4,0.2352,-602
1.4,0.264,-658
1.4,0.1552,-578
1.4,0.1008,-638
1.4,0.0624,-534
1.4,0.1584,-506
1.4,0.1456,-618
1.4,0.12,-482
1.4,0.2992,-626
1.4,0.1968,-606
1.4,0.2416,-626
1.4,0.248,-534
1.4,0.3312,-530
1.4,0.056,-566
1.4,0.216,-522
1.4,0.0368,-598
1.4,0.0016,-554
1.4,0.184,-602
1.4,0.1072,-534
1.4,0.0208,-578
1.4,0.2192,-578
1.4,0.1744,-478
1.4,0.2,-578
1.4,0.2896,-578
1.4,0.1456,-622
1.4,0.2768,-634
1.4,0.0112,-554
1.4,0.3344,-650
1.4,0.1968,-494
1.4,0.2704,-478
1.4,0.0368,-522
1.4,0.0272,-494
1.4,0.1488,-566
1.4,0.1232,-526
1.4,0.2128,-610
1.4,0.1744,-622
1.4,0.04,-538
1.4,0.0912,-546
1.4,0.2224,-602
1.4,0.0176,-642
1.4,0.056,-734
1.4,0.1648,-562
1.4,0.1104,-502
1.4,0.0816,-566
1.4,0.1872,-562
1.4,0.1616,-618
1.4,0.2736,-626
1.4,0.0528,-538
1.4,0.3472,-682
1.4,0.0048,-570
1.4,0.0496,-526
1.4,0.0784,-530
1.4,0.3408,-586
1.4,0.216,-574
1.4,0.3728,-618
1.4,0.2224,-526
1.4,0.0432,-498
1.4,0.2256,-554
1.4,0.4016,-606
1.4,0.0368,-442
1.4,0.0624,-606
1.4,0.2992,-554
1.4,0.2224,-634
1.4,0.1072,-598
1.4,0.0208,-610
1.4,0.232,-574
1.4,0.504,-678
1.4,0.0144,-502
1.4,0.0912,-542
1.4,0.0016,-482
1.4,0.1712,-602
1.4,0.1392,-578
1.4,0.2672,-546
1.4,0.072,-494
1.4,0.0432,-570
1.4,0.0624,-510
1.4,0.1776,-634
1.4,0.168,-646
1.4,0.1648,-534
1.4,0.2576,-602
1.4,0.0304,-526
1.4,0.1424,-558
1.4,0.1936,-586
1.4,0.0016,-546
1.4,0.1808,-578
1.4,0.2352,-546
1.4,0.0432,-546
1.4,0.0432,-662
1.4,0.1712,-566
1.4,0.2256,-558
1.4,0.1392,-482
1.4,0.2544,-522
1.4,0.1616,-554
1.4,0.2832,-598
1.4,0.1232,-566
1.4,0.0336,-574
1.4,0.1424,-590
1.4,0.088,-638
1.4,0.0016,-514
1.4,0.1936,-578
1.4,0.0848,-566
1.4,0.2576,-574
1.4,0.152,-570
1.4,0.1264,-566
1.4,0.1872,-574
1.4,0.248,-530
1.4,0.1776,-578
1.4,0.072,-590
1.4,0.0112,-558
1.4,0.184,-578
1.4,0.0176,-630
1.4,0.2544,-582
1.4,0.0304,-466
1.4,0.2416,-562
1.4,0.1104,-518
1.4,0.1776,-534
1.4,0.2096,-558
1.4,0.0368,-558
1.4,0.2576,-590
1.4,0.1744,-518
1.4,0.1424,-706
1.4,0.2224,-594
1.4,0.1072,-618
1.4,0.1776,-510
1.4,0.072,-590
1.4,0.0144,-586
1.4,0.0464,-442
1.4,0.0432,-594
1.4,0.2384,-614
1.4,0.1648,-542
1.4,0.3824,-554
1.4,0.136,-578
1.4,0.1552,-658
1.4,0.0944,-526
1.4,0.3632,-574
1.4,0.136,-558
1.4,0.0976,-494
1.4,0.0144,-526
1.4,0.024,-630
1.4,0.1328,-466
1.4,0.2288,-610
1.4,0.0144,-606
1.4,0.0144,-622
1.4,0.056,-502
1.4,0.0048,-478
1.4,0.3472,-618
1.4,0.1264,-602
1.4,0.2256,-534
1.4,0.2192,-610
1.4,0.2384,-562
1.4,0.0496,-566
1.4,0.3088,-562
1.4,0.264,-646
1.4,0.024,-550
1.4,0.0048,-690
1.4,0.1136,-558
1.4,0.0496,-634
1.4,0.1072,-614
1.4,0.0496,-478
1.4,0.0208,-542
1.4,0.0944,-558
1.4,0.2864,-526
1.4,0.0976,-634
1.4,0.3024,-554
1.4,0.2512,-566
1.4,0.3248,-630
1.4,0.0496,-418
1.4,0.0912,-618
1.4,0.056,-562
1.4,0.0016,-566
1.4,0.1616,-462
1.4,0.184,-434
1.4,0.0752,-518
1.4,0.04,-554
1.4,0.0112,-534
1.4,0.2,-598
1.4,0.0272,-534
1.4,0.1168,-650
1.4,0.264,-654
1.4,0.0272,-570
1.4,0.1136,-538
1.4,0.008,-510
1.4,0.2736,-526
1.4,0.1168,-618
1.4,0.056,-578
1.4,0.056,-594
1.4,0.3632,-618
1.4,0.2928,-550
1.4,0.0432,-530
1.4,0.3696,-674
1.4,0.0336,-578
1.4,0.1136,-518
1.4,0.1072,-582
1.4,0.0048,-594
1.4,0.0048,-550
1.4,0.0592,-570
1.4,0.1296,-678
1.4,0.0336,-506
1.4,0.3408,-550
1.4,0.3152,-618
1.4,0.136,-566
1.4,0.024,-570
1.4,0.152,-586
1.4,0.216,-626
1.4,0.0784,-546
1.4,0.1936,-582
1.4,0.0208,-586
1.4,0.056,-586
1.4,0.1616,-594
1.4,0.2768,-614
1.4,0.2512,-598
1.4,0.1456,-530
1.4,0.1296,-718
1.4,0.0144,-570
1.4,0.1296,-590
1.4,0.024,-598
1.4,0.0592,-578
1.4,0.0368,-574
1.4,0.0624,-594
1.4,0.2704,-630
1.4,0.1168,-574
1.4,0.0464,-598
1.4,0.2416,-654
1.4,0.1488,-550
1.4,0.1424,-610
1.4,0.1648,-534
1.4,0.1136,-586
1.4,0.0944,-558
1.4,0.2416,-522
1.4,0.0624,-590
1.4,0.0944,-486
1.4,0.0528,-562
1.4,0.04,-426
1.4,0.0624,-550
1.4,0.3024,-590
1.4,0.3152,-538
1.4,0.12,-554
1.4,0.1072,-518
1.4,0.0976,-622
1.4,0.328,-554
1.4,0.0336,-594
1.4,0.3152,-578
1.4,0.008,-434
1.4,0.2512,-542
1.4,0.0048,-510
1.4,0.0336,-558
1.4,0.136,-542
1.4,0.3056,-578
1.4,0.0176,-582
1.4,0.0688,-618
1.4,0.0336,-482
1.4,0.2416,-582
1.4,0.312,-542
1.4,0.1104,-582
1.4,0.312,-610
1.4,0.1296,-546
1.4,0.0176,-538
1.4,0.3536,-650
1.4,0.1104,-558
1.4,0.1968,-594
1.4,0.1488,-554
1.4,0.344,-558
1.4,0.056,-554
1.4,0.1296,-498
1.4,0.0848,-602
1.4,0.024,-534
1.4,0.1008,-546
1.4,0.168,-578
1.4,0.1488,-578
1.4,0.1424,-498
1.4,0.1584,-518
1.4,0.0336,-590
1.4,0.104,-522
1.4,0.0944,-630
1.4,0.0624,-558
1.4,0.1616,-594
1.4,0.0144,-478
1.4,0.3152,-534
1.4,0.088,-466
1.4,0.1392,-718
1.4,0.264,-626
1.4,0.0656,-506
1.4,0.0592,-598
1.4,0.1328,-594
1.4,0.1136,-662
1.4,0.2928,-662
1.4,0.0528,-550
1.4,0.2096,-578
1.4,0.0848,-562
1.4,0.2352,-630
1.4,0.04,-534
1.4,0.0144,-534
1.4,0.264,-574
1.4,0.024,-598
1.4,0.3312,-634
1.4,0.0976,-538
1.4,0.2224,-614
1.4,0.2,-630
1.4,0.008,-518
1.4,0.1296,-574
1.4,0.1232,-514
1.4,0.1584,-518
1.4,0.0752,-554
1.4,0.1072,-490
1.4,0.1808,-570
1.4,0.2064,-578
1.4,0.056,-534
1.4,0.12,-546
1.4,0.3312,-586
1.4,0.1296,-594
1.4,0.0624,-534
1.4,0.0144,-522
1.4,0.1264,-618
1.4,0.2288,-622
1.4,0.0432,-574
1.4,0.1072,-622
1.4,0.0272,-486
1.4,0.0848,-522
1.4,0.1872,-558
1.4,0.392,-586
1.4,0.1072,-510
1.4,0.3024,-638
1.4,0.3024,-610
1.4,0.3472,-666
1.4,0.1616,-666
1.4,0.0304,-646
1.4,0.1744,-558
1.4,0.024,-586
1.4,0.088,-510
1.4,0.0208,-534
1.4,0.0944,-570
1.4,0.0624,-518
1.4,0.1872,-574
1.4,0.1808,-534
1.4,0.0112,-574
1.4,0.1936,-718
1.4,0.0016,-534
1.4,0.0752,-558
1.4,0.3184,-582
1.4,0.1104,-550
1.4,0.1104,-586
1.4,0.0368,-498
1.4,0.0176,-598
1.4,0.0368,-486
1.4,0.0368,-530
1.4,0.4336,-674
1.4,0.1488,-626
1.4,0.056,-626
1.4,0.2128,-690
1.4,0.1808,-534
1.4,0.1424,-554
1.4,0.072,-554
1.4,0.0464,-626
1.4,0.2096,-622
1.4,0.0944,-514
1.4,0.168,-494
1.4,0.312,-578
1.4,0.0208,-514
1.4,0.0752,-610
1.4,0.2,-558
1.4,0.2288,-542
1.4,0.2128,-594
1.4,0.1616,-582
1.4,0.2192,-654
1.4,0.0144,-546
1.4,0.1296,-630
1.4,0.216,-622
1.4,0.1552,-550
1.4,0.0208,-578
1.4,0.0016,-458
1.4,0.1456,-602
1.4,0.0976,-582
1.4,0.0048,-534
1.4,0.1008,-562
1.4,0.248,-590
1.4,0.0688,-506
1.4,0.0912,-618
1.4,0.0496,-534
1.4,0.0496,-594
1.4,0.056,-562
1.4,0.248,-514
1.4,0.2448,-582
1.4,0.1744,-494
1.4,0.4112,-654
1.4,0.1904,-658
1.4,0.2,-534
1.4,0.216,-658
1.4,0.2896,-618
1.4,0.088,-602
1.4,0.0272,-566
1.4,0.0752,-558
1.4,0.2768,-582
1.4,0.264,-630
1.4,0.216,-562
1.4,0.1104,-530
1.4,0.3792,-582
1.4,0.248,-538
1.4,0.0304,-586
1.4,0.1136,-562
1.4,0.1072,-634
1.4,0.2576,-646
1.4,0.104,-606
1.4,0.0528,-494
1.4,0.1008,-462
1.4,0.1008,-542
1.4,0.0496,-562
1.4,0.296,-610
1.4,0.1776,-530
1.4,0.2992,-598
1.4,0.3056,-562
1.4,0.4432,-646
1.4,0.3536,-626
1.4,0.056,-550
1.4,0.1424,-542
1.4,0.024,-502
1.4,0.1136,-566
1.4,0.2032,-522
1.4,0.0592,-550
1.4,0.1232,-538
1.4,0.1456,-602
1.4,0.072,-594
1.4,0.104,-570
1.4,0.0272,-570
1.4,0.0112,-514
1.4,0.3792,-542
1.4,0.1424,-574
1.4,0.0816,-486
1.4,0.0848,-558
1.4,0.2032,-578
1.4,0.0784,-526
1.4,0.0176,-522
1.4,0.216,-626
1.4,0.072,-562
1.4,0.3856,-618
1.4,0.008,-594
1.4,0.056,-546
1.4,0.072,-598
1.4,0.2,-598
1.4,0.056,-438
1.4,0.1104,-518
1.4,0.312,-602
1.4,0.0688,-550
1.4,0.0976,-506
1.4,0.1936,-542
1.4,0.0272,-582
1.4,0.2256,-522
1.4,0.1776,-630
1.4,0.104,-522
1.4,0.0048,-566
1.4,0.1968,-558
1.4,0.0848,-518
1.4,0.328,-622
1.4,0.1104,-574
1.4,0.0048,-558
1.4,0.1264,-526
1.4,0.0176,-670
1.4,0.0144,-610
1.4,0.2032,-610
1.4,0.2192,-514
1.4,0.0176,-534
1.4,0.0144,-506
1.4,0.136,-506
1.4,0.1328,-534
1.4,0.0592,-514
1.4,0.2128,-538
1.4,0.0784,-534
1.4,0.0848,-526
1.4,0.0784,-494
1.4,0.0944,-510
1.4,0.0048,-546
1.4,0.3472,-626
1.4,0.0816,-638
1.4,0.0496,-630
1.4,0.1968,-586
1.4,0.2032,-626
1.4,0.3856,-706
1.4,0.0176,-546
1.4,0.2544,-554
1.4,0.36,-626
1.4,0.0592,-562
1.4,0.0336,-562
1.4,0.1808,-506
1.4,0.0688,-582
1.4,0.104,-582
1.4,0.1616,-570
1.4,0.008,-510
1.4,0.3184,-630
1.4,0.1936,-546
1.4,0.0336,-658
1.4,0.1552,-502
1.4,0.3568,-554
1.4,0.2384,-634
1.4,0.2448,-590
1.4,0.1712,-574
1.4,0.0976,-570
1.4,0.1744,-586
1.4,0.0272,-566
1.4,0.12,-538
1.4,0.0016,-510
1.4,0.296,-650
1.4,0.0336,-646
1.4,0.2704,-598
1.4,0.0976,-654
1.4,0.0496,-578
1.4,0.0432,-594
1.4,0.0912,-554
1.4,0.0624,-686
1.4,0.1776,-466
1.4,0.056,-546
1.4,0.3472,-554
1.4,0.0176,-526
1.4,0.0912,-526
1.4,0.1968,-550
1.4,0.024,-518
1.4,0.0464,-674
1.4,0.12,-510
1.4,0.0976,-598
1.4,0.1104,-570
1.4,0.0688,-546
1.4,0.0496,-578
1.4,0.2672,-586
1.4,0.2064,-602
1.4,0.0656,-590
1.4,0.2512,-566
1.4,0.056,-558
1.4,0.0464,-526
1.4,0.2928,-562
1.4,0.2672,-598
1.4,0.0944,-538
1.4,0.0112,-530
1.4,0.0656,-510
1.4,0.2224,-582
1.4,0.0048,-526
1.4,0.056,-650
1.4,0.0688,-506
1.4,0.0784,-490
1.4,0.2864,-634
1.4,0.1424,-598
1.4,0.2352,-550
1.4,0.072,-542
1.4,0.0688,-670
1.4,0.1424,-582
1.4,0.0816,-530
1.4,0.04,-506
1.4,0.168,-614
1.4,0.0304,-494
1.4,0.2512,-546
1.4,0.0816,-490
1.4,0.104,-602
1.4,0.2256,-446
1.4,0.1424,-582
1.4,0.072,-562
1.4,0.0784,-574
1.4,0.072,-542
1.4,0.1328,-602
1.4,0.3216,-606
1.4,0.0944,-550
1.4,0.0848,-590
1.4,0.0496,-526
1.4,0.136,-526
1.4,0.36,-634
1.4,0.0016,-554
1.4,0.1808,-566
1.4,0.2672,-622
1.4,0.1392,-582
1.4,0.0112,-634
1.4,0.0944,-570
1.4,0.1232,-594
1.4,0.0112,-606
1.4,0.5008,-630
1.4,0.2352,-482
1.4,0.1616,-478
1.4,0.1776,-706
1.4,0.0368,-622
1.4,0.2384,-574
1.4,0.2096,-566
1.4,0.2896,-610
1.4,0.2928,-674
1.4,0.0432,-634
1.4,0.072,-522
1.4,0.0208,-562
1.4,0.0592,-550
1.4,0.0048,-598
1.4,0.1552,-590
1.4,0.1296,-590
1.4,0.1296,-582
1.4,0.2128,-638
1.4,0.1712,-574
1.4,0.0848,-494
1.4,0.024,-598
1.4,0.024,-498
1.4,0.1456,-606
1.4,0.0112,-558
1.4,0.0592,-574
1.4,0.0656,-510
1.4,0.0048,-482
1.4,0.0464,-618
1.4,0.1424,-530
1.4,0.0336,-522
1.4,0.0656,-538
1.4,0.1904,-554
1.4,0.0592,-618
1.4,0.392,-574
1.4,0.072,-586
1.4,0.1456,-526
1.4,0.0432,-514
1.4,0.104,-550
1.4,0.168,-602
1.4,0.104,-554
1.4,0.1584,-642
1.4,0.1744,-550
1.4,0.216,-678
1.4,0.1744,-618
1.4,0.184,-526
1.4,0.0464,-526
1.4,0.1424,-594
1.4,0.0528,-538
1.4,0.1552,-526
1.4,0.0496,-534
1.4,0.0208,-514
1.4,0.28,-622
1.4,0.1712,-586
1.4,0.008,-542
1.4,0.008,-554
1.4,0.024,-546
1.4,0.0272,-562
1.4,0.0464,-570
1.4,0.1008,-630
1.4,0.0112,-590
1.4,0.056,-590
1.4,0.0464,-618
1.4,0.3184,-578
1.4,0.168,-566
1.4,0.376,-610
1.4,0.2256,-494
1.4,0.2416,-574
1.4,0.184,-554
1.4,0.312,-654
1.4,0.0368,-518
1.4,0.2448,-586
1.4,0.136,-570
1.4,0.1712,-578
1.4,0.184,-614
1.4,0.1616,-566
1.4,0.1168,-566
1.4,0.1264,-494
1.4,0.04,-538
1.4,0.2384,-678
1.4,0.0016,-582
1.4,0.0112,-498
1.4,0.2864,-574
1.4,0.184,-594
1.4,0.4016,-674
1.4,0.1904,-522
1.4,0.1392,-598
1.4,0.0816,-526
1.4,0.152,-618
1.4,0.1616,-634
1.4,0.392,-682
1.4,0.1808,-526
1.4,0.0752,-658
1.4,0.1232,-610
1.4,0.0752,-586
1.4,0.1936,-526
1.4,0.0144,-542
1.4,0.0752,-526
1.4,0.2672,-606
1.4,0.2704,-718
1.4,0.1072,-626
1.4,0.2352,-570
1.4,0.0112,-534
1.4,0.1808,-514
1.4,0.0144,-614
1.4,0.0464,-534
1.4,0.0112,-510
1.4,0.0688,-518
1.4,0.0752,-542
1.4,0.2704,-618
1.4,0.0432,-546
1.4,0.264,-658
1.4,0.1232,-506
1.4,0.2768,-642
1.4,0.0816,-530
1.4,0.0016,-582
1.4,0.0304,-490
1.4,0.088,-554
1.4,0.0784,-518
1.4,0.0272,-482
1.4,0.0752,-530
1.4,0.248,-574
1.4,0.0368,-598
1.4,0.0176,-582
1.4,0.1104,-610
1.4,0.0272,-578
1.4,0.2736,-610
1.4,0.1072,-502
1.4,0.0816,-618
1.4,0.1584,-518
1.4,0.2384,-518
1.4,0.1072,-574
1.4,0.328,-598
1.4,0.0336,-594
1.4,0.0432,-550
1.4,0.0112,-590
1.4,0.0272,-546
1.4,0.0208,-542
1.4,0.1552,-598
1.4,0.0432,-474
1.4,0.0528,-618
1.4,0.0144,-526
1.4,0.088,-590
1.4,0.2096,-602
1.4,0.0944,-546
1.4,0.0944,-542
1.4,0.1136,-562
1.4,0.1296,-630
1.4,0.0208,-550
1.4,0.4144,-674
1.4,0.0528,-514
1.4,0.3056,-634
1.4,0.152,-522
1.4,0.1776,-566
1.4,0.0784,-566
1.4,0.0752,-510
1.4,0.2448,-498
1.4,0.1232,-542
1.4,0.152,-538
1.4,0.1424,-578
1.4,0.1904,-494
1.4,0.1232,-558
1.4,0.3184,-558
1.4,0.0976,-558
1.4,0.104,-554
1.4,0.2064,-530
1.4,0.3856,-558
1.4,0.024,-570
1.4,0.1104,-542
1.4,0.2256,-630
1.4,0.2896,-566
1.4,0.3792,-554
1.4,0.136,-514
1.4,0.0208,-566
1.4,0.0592,-686
1.4,0.0656,-550
1.4,0.1616,-562
1.4,0.1552,-634
1.4,0.3152,-630
1.4,0.0848,-558
1.4,0.2608,-614
1.4,0.232,-558
1.4,0.1616,-582
1.4,0.3056,-630
1.4,0.008,-538
1.4,0.2,-582
1.4,0.2928,-538
1.4,0.2896,-654
1.4,0.2864,-574
1.4,0.0368,-586
1.4,0.3088,-598
1.4,0.2,-554
1.4,0.1104,-558
1.4,0.088,-502
1.4,0.136,-586
1.4,0.3216,-618
1.4,0.0944,-522
1.4,0.0912,-562
1.4,0.2416,-558
1.4,0.2416,-610
1.4,0.0816,-566
1.4,0.056,-546
1.4,0.1648,-542
1.4,0.168,-686
1.4,0.2512,-630
1.4,0.0112,-578
1.4,0.2384,-562
1.4,0.2768,-478
1.4,0.2064,-562
1.4,0.0176,-558
1.4,0.1424,-586
1.4,0.3792,-618
1.4,0.1264,-614
1.4,0.056,-490
1.4,0.0464,-582
1.4,0.0304,-602
1.4,0.0048,-466
1.4,0.1136,-598
1.4,0.232,-626
1.4,0.152,-522
1.4,0.3728,-622
1.4,0.2608,-598
1.4,0.0336,-586
1.4,0.1104,-482
1.4,0.0208,-522
1.4,0.0048,-542
1.4,0.3824,-554
1.4,0.2544,-670
1.4,0.1392,-562
1.4,0.0976,-494
1.4,0.1936,-566
1.4,0.0272,-646
1.4,0.1104,-574
1.4,0.0176,-558
1.4,0.1488,-618
1.4,0.2768,-598
1.4,0.312,-598
1.4,0.168,-614
1.4,0.1264,-682
1.4,0.0304,-598
1.4,0.008,-550
1.4,0.0784,-526
1.4,0.184,-602
1.4,0.1968,-470
1.4,0.0144,-594
1.4,0.264,-566
1.4,0.2544,-610
1.4,0.1872,-610
1.4,0.0944,-526
1.4,0.008,-486
1.4,0.0528,-558
1.4,0.024,-558
1.4,0.0112,-574
1.4,0.0336,-530
1.4,0.3536,-522
1.4,0.12,-598
1.4,0.0656,-602
1.4,0.008,-546
1.4,0.072,-566
1.4,0.1264,-566
1.4,0.0144,-586
1.4,0.0944,-570
1.4,0.0464,-470
1.4,0.0464,-566
1.4,0.1168,-526
1.4,0.1392,-562
1.4,0.088,-710
1.4,0.1552,-514
1.4,0.1104,-646
1.4,0.024,-610
1.4,0.1712,-514
1.4,0.2128,-450
1.4,0.2,-562
1.4,0.2672,-598
1.4,0.136,-582
1.4,0.0784,-514
1.4,0.3472,-562
1.4,0.1424,-478
1.4,0.152,-510
1.4,0.1456,-550
1.4,0.1776,-490
1.4,0.1104,-550
1.4,0.1456,-658
1.4,0.2704,-622
1.4,0.232,-598
1.4,0.2352,-610
1.4,0.2032,-558
1.4,0.024,-642
1.4,0.0368,-614
1.4,0.1808,-574
1.4,0.008,-630
1.4,0.056,-506
1.4,0.2096,-550
1.4,0.024,-482
1.4,0.168,-558
1.4,0.1168,-602
1.4,0.12,-566
1.4,0.1648,-550
1.4,0.0432,-506
1.4,0.1936,-530
1.4,0.0816,-498
1.4,0.088,-582
1.4,0.0272,-574
1.4,0.2128,-518
1.4,0.2512,-562
1.4,0.0048,-570
1.4,0.1488,-602
1.4,0.0336,-454
1.4,0.184,-506
1.4,0.1008,-554
1.4,0.1104,-642
1.4,0.0944,-538
1.4,0.1424,-498
1.4,0.0016,-586
1.4,0.1872,-598
1.4,0.104,-590
1.4,0.0336,-506
1.4,0.3824,-614
1.4,0.1008,-530
1.4,0.0784,-506
1.4,0.1104,-570
1.4,0.0176,-550
1.4,0.1296,-518
1.4,0.0688,-482
1.4,0.1008,-506
1.4,0.3376,-586
1.4,0.1296,-550
1.4,0.1392,-578
1.4,0.1456,-538
1.4,0.1968,-502
1.4,0.2224,-586
1.4,0.136,-614
1.4,0.0368,-602
1.4,0.1168,-498
1.4,0.2352,-590
1.4,0.0656,-554
1.4,0.0144,-522
1.4,0.2,-538
1.4,0.0944,-654
1.4,0.0304,-458
1.4,0.2224,-510
1.4,0.0528,-586
1.4,0.0336,-558
1.4,0.1264,-530
1.4,0.0816,-562
1.4,0.1776,-526
1.4,0.168,-590
1.4,0.2448,-526
1.4,0.0112,-674
1.4,0.3664,-582
1.4,0.2384,-582
1.4,0.0592,-642
1.4,0.1872,-518
1.4,0.3728,-618
1.4,0.072,-646
1.4,0.0464,-458
1.4,0.1648,-590
1.4,0.2192,-526
1.4,0.0624,-530
1.4,0.2384,-594
1.4,0.0912,-482
1.4,0.0048,-658
1.4,0.1168,-498
1.4,0.1648,-666
1.4,0.0176,-610
1.4,0.0144,-494
1.4,0.008,-542
1.4,0.152,-586
1.4,0.0304,-566
1.4,0.1488,-534
1.4,0.136,-550
1.4,0.0816,-638
1.4,0.0432,-598
1.4,0.1008,-618
1.4,0.1968,-622
1.4,0.0496,-606
1.4,0.088,-570
1.4,0.0816,-534
1.4,0.104,-498
1.4,0.1488,-578
1.4,0.2384,-550
1.4,0.5008,-634
1.4,0.1648,-610
1.4,0.0784,-570
1.4,0.0304,-562
1.4,0.0272,-642
1.4,0.1456,-618
1.4,0.1648,-526
1.4,0.04,-594
1.4,0.28,-654
1.4,0.0368,-546
1.4,0.0432,-486
1.4,0.28,-494
1.4,0.1168,-518
1.4,0.1936,-618
1.4,0.0048,-538
1.4,0.1904,-554
1.4,0.2832,-582
1.4,0.0176,-602
1.4,0.0176,-538
1.4,0.2064,-618
1.4,0.3376,-582
1.4,0.0528,-614
1.4,0.2992,-578
1.4,0.088,-626
1.4,0.0464,-546
1.4,0.0176,-562
1.4,0.056,-522
1.4,0.0848,-598
1.4,0.0944,-514
1.4,0.0112,-622
1.4,0.3888,-658
1.4,0.0368,-630
1.4,0.088,-610
1.4,0.0688,-558
1.4,0.1136,-570
1.4,0.1584,-550
1.4,0.2096,-578
1.4,0.1008,-522
1.4,0.3984,-614
1.4,0.0944,-578
1.4,0.152,-534
1.4,0.0208,-534
1.4,0.2192,-538
1.4,0.1392,-598
1.4,0.2096,-582
1.4,0.152,-546
1.4,0.0656,-626
1.4,0.1904,-582
1.4,0.0976,-506
1.4,0.0688,-554
1.4,0.056,-502
1.4,0.2032,-638
1.4,0.0208,-554
1.4,0.3248,-534
1.4,0.184,-586
1.4,0.1264,-570
1.4,0.312,-574
1.4,0.0752,-574
1.4,0.1104,-546
1.4,0.0528,-486
1.4,0.0048,-566
1.4,0.1328,-474
1.4,0.1488,-530
1.4,0.328,-610
1.4,0.312,-670
1.4,0.3792,-622
1.4,0.3216,-538
1.4,0.0656,-570
1.4,0.0944,-590
1.4,0.0912,-526
1.4,0.0752,-554
1.4,0.2064,-578
1.4,0.3952,-650
1.4,0.0432,-602
1.4,0.024,-506
1.4,0.3024,-622
1.4,0.2,-550
1.4,0.2384,-526
1.4,0.056,-510
1.4,0.0816,-538
1.4,0.0048,-558
1.4,0.008,-610
1.4,0.0496,-594
1.4,0.088,-598
1.4,0.0048,-490
1.4,0.1808,-610
1.4,0.3952,-598
1.4,0.2576,-610
1.4,0.2704,-554
1.4,0.056,-510
1.4,0.0176,-562
1.4,0.5104,-638
1.4,0.168,-618
1.4,0.056,-638
1.4,0.2224,-590
1.4,0.088,-562
1.4,0.2192,-526
1.4,0.0592,-594
1.4,0.2032,-526
1.4,0.0976,-630
1.4,0.0208,-546
1.4,0.1552,-666
1.4,0.1232,-574
1.4,0.2704,-558
1.4,0.0464,-630
1.4,0.1072,-582
1.4,0.0432,-650
1.4,0.072,-542
1.4,0.1232,-614
1.4,0.1328,-518
1.4,0.2576,-666
1.4,0.2064,-518
1.4,0.1072,-558
1.4,0.0048,-498
1.4,0.2352,-578
1.4,0.088,-518
1.4,0.1296,-514
1.4,0.2096,-634
1.4,0.0656,-586
1.4,0.104,-558
1.4,0.136,-630
1.4,0.3312,-670
1.4,0.056,-534
1.4,0.168,-610
1.4,0.2608,-594
1.4,0.1808,-586
1.4,0.0816,-602
1.4,0.2512,-562
1.4,0.0624,-586
1.4,0.1488,-546
1.4,0.1776,-574
1.4,0.0784,-702
1.4,0.392,-610
1.4,0.3792,-606
1.4,0.0976,-598
1.4,0.0016,-438
1.4,0.1488,-558
1.4,0.0752,-538
1.4,0.1936,-598
1.4,0.216,-514
1.4,0.248,-494
1.4,0.1392,-554
1.4,0.1232,-606
1.4,0.12,-562
1.4,0.1648,-542
1.4,0.1104,-626
1.4,0.3472,-602
1.4,0.2224,-570
1.4,0.0592,-526
1.4,0.168,-594
1.4,0.1424,-538
1.4,0.2544,-594
1.4,0.104,-602
1.4,0.024,-542
1.4,0.104,-622
1.4,0.264,-622
1.4,0.2128,-622
1.4,0.2128,-666
1.4,0.3312,-650
1.4,0.008,-594
1.4,0.152,-526
1.4,0.104,-546
1.4,0.04,-514
1.4,0.2224,-530
1.4,0.0432,-618
1.4,0.056,-606
1.4,0.0944,-538
1.4,0.1296,-654
1.4,0.1936,-562
1.4,0.1616,-530
1.4,0.04,-598
1.4,0.1904,-598
1.4,0.1328,-550
1.4,0.136,-606
1.4,0.312,-574
1.4,0.1072,-574
1.4,0.1872,-610
1.4,0.3184,-646
1.4,0.2384,-558
1.4,0.3056,-542
1.4,0.1808,-526
1.4,0.0912,-546
1.4,0.248,-602
1.4,0.0208,-614
1.4,0.088,-562
1.4,0.0976,-582
1.4,0.0624,-542
1.4,0.12,-522
1.4,0.2096,-602
1.4,0.04,-586
1.4,0.0592,-522
1.4,0.3312,-610
1.4,0.3536,-602
1.4,0.024,-586
1.4,0.0912,-458
1.4,0.2704,-682
1.4,0.0048,-610
1.4,0.2032,-638
1.4,0.3728,-610
1.4,0.0272,-546
1.4,0.1776,-482
1.4,0.104,-558
1.4,0.1488,-554
1.4,0.1008,-510
1.4,0.0848,-626
1.4,0.0176,-614
1.4,0.056,-526
1.4,0.2192,-562
1.4,0.1168,-638
1.4,0.072,-602
1.4,0.0016,-578
1.4,0.2384,-490
1.4,0.1168,-542
1.4,0.0464,-602
1.4,0.0528,-610
1.4,0.0816,-618
1.4,0.0528,-586
1.4,0.04,-506
1.4,0.1232,-658
1.4,0.136,-502
1.4,0.0272,-610
1.4,0.0144,-658
1.4,0.0336,-614
1.4,0.168,-578
1.4,0.0368,-550
1.4,0.2096,-586
1.4,0.1776,-614
1.4,0.0528,-554
1.4,0.2704,-530
1.4,0.3024,-518
1.4,0.1712,-578
1.4,0.1968,-570
1.4,0.0048,-482
1.4,0.0272,-530
1.4,0.04,-546
1.4,0.0272,-582
1.4,0.1264,-550
1.4,0.0496,-566
1.4,0.2576,-618
1.4,0.2896,-550
1.4,0.2096,-490
1.4,0.0112,-598
1.4,0.056,-482
1.4,0.0976,-502
1.4,0.1072,-514
1.4,0.2672,-610
1.4,0.008,-626
1.4,0.1968,-578
1.4,0.2992,-550
1.4,0.072,-534
1.4,0.2288,-554
1.4,0.1136,-542
1.4,0.104,-510
1.4,0.2,-626
1.4,0.328,-610
1.4,0.1744,-666
1.4,0.1072,-506
1.4,0.1136,-554
1.4,0.1744,-510
1.4,0.1488,-602
1.4,0.0048,-602
1.4,0.0336,-578
1.4,0.0208,-602
1.4,0.072,-614
1.4,0.1904,-558
1.4,0.1488,-482
1.4,0.1232,-566
1.4,0.0784,-510
1.4,0.008,-554
1.4,0.024,-702
1.4,0.1168,-566
1.4,0.0688,-558
1.4,0.2672,-614
1.4,0.1488,-498
1.4,0.0816,-558
1.4,0.1584,-562
1.4,0.1968,-594
1.4,0.1488,-626
1.4,0.1616,-534
1.4,0.0144,-670
1.4,0.0624,-518
1.4,0.1488,-578
1.4,0.1328,-554
1.4,0.2,-562
1.4,0.1296,-694
1.4,0.0048,-522
1.4,0.1232,-638
1.4,0.2192,-642
1.4,0.008,-482
1.4,0.0176,-518
1.4,0.0816,-454
1.4,0.2896,-626
1.4,0.0176,-606
1.4,0.1488,-622
1.4,0.04,-542
1.4,0.2224,-622
1.4,0.3536,-598
1.4,0.0368,-598
1.4,0.3344,-686
1.4,0.0112,-570
1.4,0.0368,-474
1.4,0.1616,-502
1.4,0.1552,-638
1.4,0.0592,-486
1.4,0.2,-622
1.4,0.024,-706
1.4,0.0624,-522
1.4,0.072,-530
1.4,0.1648,-558
1.4,0.1104,-590
1.4,0.088,-594
1.4,0.0592,-614
1.4,0.0496,-550
1.4,0.232,-514
1.4,0.1232,-534
1.4,0.0912,-638
1.4,0.1296,-574
1.4,0.152,-606
1.4,0.04,-522
1.4,0.0016,-542
1.4,0.1296,-590
1.4,0.12,-486
1.4,0.28,-598
1.4,0.024,-478
1.4,0.2352,-514
1.4,0.2928,-598
1.4,0.0336,-606
1.4,0.1872,-502
1.4,0.1136,-554
1.4,0.1744,-554
1.4,0.0368,-498
1.4,0.2512,-602
1.4,0.2192,-606
1.4,0.0464,-546
1.4,0.2832,-558
1.4,0.04,-550
1.4,0.2672,-506
1.4,0.0112,-538
1.4,0.0464,-574
1.4,0.0176,-450
1.4,0.216,-622
1.4,0.0624,-502
1.4,0.1072,-530
1.4,0.2,-502
1.4,0.216,-586
1.4,0.0688,-534
1.4,0.0432,-550
1.4,0.0432,-662
1.4,0.0624,-538
1.4,0.2576,-590
1.4,0.0336,-618
1.4,0.0912,-594
1.4,0.2448,-662
1.4,0.0912,-558
1.4,0.328,-634
1.4,0.1328,-606
1.4,0.0976,-542
1.4,0.152,-530
1.4,0.0688,-610
1.4,0.0496,-498
1.4,0.0528,-582
1.4,0.136,-614
1.4,0.1488,-566
1.4,0.2416,-662
1.4,0.1008,-498
1.4,0.1616,-606
1.4,0.12,-526
1.4,0.0944,-526
1.4,0.1264,-570
1.4,0.0144,-546
1.4,0.4336,-590
1.4,0.152,-498
1.4,0.1328,-586
1.4,0.1488,-562
1.4,0.0528,-530
1.4,0.0944,-522
1.4,0.216,-654
1.4,0.2576,-554
1.4,0.0368,-566
1.4,0.2512,-642
1.4,0.104,-602
1.4,0.0816,-490
1.4,0.2608,-562
1.4,0.0304,-566
1.4,0.1424,-594
1.4,0.1392,-614
1.4,0.44,-570
1.4,0.152,-450
1.4,0.1072,-494
1.4,0.0976,-614
1.4,0.1104,-526
1.4,0.1008,-538
1.4,0.0944,-546
1.4,0.0144,-534
1.4,0.088,-570
1.4,0.2288,-554
1.4,0.3056,-566
1.4,0.0912,-558
1.4,0.0976,-566
1.4,0.0624,-586
1.4,0.0656,-534
1.4,0.216,-562
1.4,0.168,-610
1.4,0.0656,-518
1.4,0.0464,-542
1.4,0.1008,-638
1.4,0.136,-522
1.4,0.152,-586
1.4,0.424,-654
1.4,0.0656,-550
1.4,0.0144,-566
1.4,0.2032,-562
1.4,0.0496,-582
1.4,0.0848,-514
1.4,0.1744,-514
1.4,0.0656,-566
1.4,0.0336,-530
1.4,0.2608,-610
1.4,0.0432,-522
1.4,0.3792,-538
1.4,0.1264,-542
1.4,0.1776,-626
1.4,0.0592,-558
1.4,0.2512,-546
1.4,0.0176,-550
1.4,0.0656,-522
1.4,0.072,-574
1.4,0.0816,-574
1.4,0.2544,-514
1.4,0.0528,-502
1.4,0.0688,-638
1.4,0.344,-530
1.4,0.0336,-578
1.4,0.2608,-554
1.4,0.1488,-682
1.4,0.232,-582
1.4,0.2256,-606
1.4,0.0496,-422
1.4,0.216,-530
1.4,0.0112,-622
1.4,0.024,-570
1.4,0.0464,-518
1.4,0.1904,-554
1.4,0.0432,-530
1.4,0.104,-566
1.4,0.1392,-610
1.4,0.1392,-646
1.4,0.1424,-550
1.4,0.1168,-478
1.4,0.1552,-610
1.4,0.072,-586
1.4,0.1424,-610
1.4,0.1904,-638
1.4,0.328,-594
1.4,0.2096,-558
1.4,0.0528,-578
1.4,0.12,-650
1.4,0.1296,-566
1.4,0.0176,-634
1.4,0.1392,-518
1.4,0.0144,-566
1.4,0.0368,-490
1.4,0.04,-570
1.4,0.0336,-594
1.4,0.1296,-514
1.4,0.024,-554
1.4,0.0976,-574
1.4,0.2576,-598
1.4,0.2448,-554
1.4,0.0912,-602
1.4,0.2352,-606
1.4,0.2064,-686
1.4,0.2384,-694
1.4,0.0816,-558
1.4,0.1584,-538
1.4,0.0496,-506
1.4,0.056,-602
1.4,0.1264,-458
1.4,0.1008,-594
1.4,0.136,-550
1.4,0.4656,-618
1.4,0.0144,-630
1.4,0.0688,-590
1.4,0.0336,-542
1.4,0.12,-590
1.4,0.1232,-662
1.4,0.0336,-650
1.4,0.072,-606
1.4,0.0816,-618
1.4,0.0528,-586
1.4,0.0848,-558
1.4,0.216,-518
1.4,0.0592,-502
1.4,0.232,-582
1.4,0.0912,-674
1.4,0.2832,-690
1.4,0.0624,-550
1.4,0.104,-442
1.4,0.024,-566
1.4,0.0624,-606
1.4,0.3024,-630
1.4,0.1296,-586
1.4,0.2384,-466
1.4,0.0912,-498
1.4,0.0784,-538
1.4,0.12,-558
1.4,0.2128,-590
1.4,0.1072,-626
1.4,0.0464,-638
1.4,0.1712,-594
1.4,0.1648,-522
1.4,0.2416,-558
1.4,0.1712,-602
1.4,0.008,-486
1.4,0.0912,-562
1.4,0.04,-550
1.4,0.04,-642
1.4,0.0848,-542
1.4,0.1264,-598
1.4,0.2224,-526
1.4,0.0656,-562
1.4,0.0336,-570
1.4,0.0304,-566
1.4,0.1648,-606
1.4,0.0816,-562
1.4,0.1936,-594
1.4,0.2288,-590
1.4,0.1872,-518
1.4,0.1168,-514
1.4,0.0688,-578
1.4,0.184,-630
1.4,0.0752,-578
1.4,0.0784,-498
1.4,0.216,-526
1.4,0.1072,-586
1.4,0.4336,-690
1.4,0.3056,-598
1.4,0.2896,-522
1.4,0.0624,-574
1.4,0.04,-506
1.4,0.1776,-526
1.4,0.0432,-526
1.4,0.088,-534
1.4,0.1232,-510
1.4,0.1104,-522
1.4,0.1552,-542
1.4,0.2448,-502
1.4,0.3952,-674
1.4,0.2672,-618
1.4,0.0592,-606
1.4,0.0464,-566
1.4,0.0048,-586
1.4,0.168,-526
1.4,0.1008,-530
1.4,0.0304,-454
1.4,0.104,-422
1.4,0.04,-594
1.4,0.136,-626
1.4,0.1936,-638
1.4,0.0048,-634
1.4,0.0592,-522
1.4,0.0304,-642
1.4,0.1328,-554
1.4,0.0144,-542
1.4,0.3536,-502
1.4,0.3024,-590
1.4,0.0848,-610
1.4,0.0304,-614
1.4,0.1712,-598
1.4,0.28,-594
1.4,0.0912,-566
1.4,0.1552,-618
1.4,0.344,-578
1.4,0.1456,-566
1.4,0.2576,-642
1.4,0.264,-518
1.4,0.1008,-570
1.4,0.3024,-602
1.4,0.0432,-602
1.4,0.088,-562
1.4,0.1264,-622
1.4,0.3344,-654
1.4,0.024,-550
1.4,0.1904,-610
1.4,0.12,-522
1.4,0.008,-590
1.4,0.0848,-614
1.4,0.0368,-566
1.4,0.2096,-510
1.4,0.0912,-558
1.4,0.0848,-566
1.4,0.2416,-554
1.4,0.0592,-570
1.4,0.0912,-606
1.4,0.3536,-650
1.4,0.3152,-614
1.4,0.056,-582
1.4,0.1488,-522
1.4,0.0848,-546
1.4,0.1648,-618
1.4,0.024,-594
1.4,0.36,-590
1.4,0.1104,-650
1.4,0.0368,-542
1.4,0.0592,-542
1.4,0.2704,-618
1.4,0.072,-514
1.4,0.1488,-542
1.4,0.2768,-626
1.4,0.024,-650
1.4,0.2288,-506
1.4,0.2896,-570
1.4,0.1744,-574
1.4,0.0432,-542
1.4,0.1328,-586
1.4,0.1904,-502
1.4,0.0336,-506
1.4,0.0144,-566
1.4,0.0016,-558
1.4,0.04,-522
1.4,0.0368,-482
1.4,0.2416,-534
1.4,0.1232,-490
1.4,0.072,-546
1.4,0.0912,-590
1.4,0.0976,-670
1.4,0.0944,-630
1.4,0.0336,-494
1.4,0.1872,-566
1.4,0.0272,-614
1.4,0.3184,-578
1.4,0.056,-606
1.4,0.0912,-534
1.4,0.2032,-626
1.4,0.04,-430
1.4,0.0528,-502
1.4,0.0176,-502
1.4,0.0624,-554
1.4,0.1008,-594
1.4,0.2064,-522
1.4,0.1136,-518
1.4,0.1488,-506
1.4,0.2704,-566
1.4,0.2096,-570
1.4,0.0528,-574
1.4,0.0656,-482
1.4,0.1456,-522
1.4,0.04,-574
1.4,0.1136,-558
1.4,0.1616,-570
1.4,0.0176,-558
1.4,0.296,-614
1.4,0.1168,-610
1.4,0.1392,-638
1.4,0.0304,-634
1.4,0.0784,-558
1.4,0.2768,-614
1.4,0.0336,-510
1.4,0.3024,-582
1.4,0.2672,-534
1.4,0.0752,-522
1.4,0.3472,-630
1.4,0.0528,-474
1.4,0.1328,-566
1.4,0.1072,-570
1.4,0.104,-666
1.4,0.136,-530
1.4,0.1552,-562
1.4,0.3632,-710
1.4,0.2128,-662
1.4,0.1968,-554
1.4,0.0976,-610
1.4,0.0144,-506
1.4,0.0048,-622
1.4,0.0208,-582
1.4,0.2256,-566
1.4,0.0048,-542
1.4,0.1424,-570
1.4,0.12,-598
1.4,0.1232,-614
1.4,0.0624,-494
1.4,0.184,-510
1.4,0.1488,-550
1.4,0.1744,-634
1.4,0.4304,-670
1.4,0.2064,-602
1.4,0.0784,-538
1.4,0.0784,-526
1.4,0.0688,-602
1.4,0.0336,-582
1.4,0.0464,-542
1.4,0.0368,-578
1.4,0.1104,-614
1.4,0.3184,-658
1.4,0.2576,-622
1.4,0.2672,-490
1.4,0.1136,-538
1.4,0.1008,-550
1.4,0.3152,-558
1.4,0.2288,-598
1.4,0.3824,-614
1.4,0.2992,-530
1.4,0.104,-598
1.4,0.1936,-594
1.4,0.1648,-602
1.4,0.024,-498
1.4,0.216,-574
1.4,0.216,-654
1.4,0.4208,-654
1.4,0.2736,-578
1.4,0.152,-678
1.4,0.0496,-514
1.4,0.0784,-586
1.4,0.1488,-518
1.4,0.184,-574
1.4,0.0752,-522
1.4,0.1584,-602
1.4,0.0528,-506
1.4,0.0272,-578
1.4,0.04,-538
1.4,0.1168,-490
1.4,0.0848,-582
1.4,0.328,-610
1.4,0.1648,-494
1.4,0.0496,-590
1.4,0.1808,-498
1.4,0.4816,-698
1.4,0.0432,-538
1.4,0.1392,-626
1.4,0.0528,-598
1.4,0.0016,-542
1.4,0.1008,-550
1.4,0.1552,-470
1.4,0.5008,-754
1.4,0.04,-494
1.4,0.0848,-514
1.4,0.232,-550
1.4,0.1904,-538
1.4,0.1008,-574
1.4,0.1264,-574
1.4,0.0496,-626
1.4,0.1616,-554
1.4,0.1456,-566
1.4,0.1936,-550
1.4,0.0624,-470
1.4,0.2448,-606
1.4,0.104,-538
1.4,0.2768,-558
1.4,0.2576,-558
1.4,0.1712,-618
1.4,0.0272,-490
1.4,0.1168,-630
1.4,0.0688,-550
1.4,0.0752,-586
1.4,0.136,-582
1.4,0.04,-470
1.4,0.0944,-538
1.4,0.1072,-622
1.4,0.0336,-570
1.4,0.296,-638
1.4,0.1296,-590
1.4,0.1424,-678
1.4,0.2576,-582
1.4,0.2512,-554
1.4,0.28,-594
1.4,0.1232,-498
1.4,0.0528,-550
1.4,0.1104,-530
1.4,0.0624,-478
1.4,0.152,-566
1.4,0.2064,-566
1.4,0.376,-686
1.4,0.136,-550
1.4,0.0528,-534
1.4,0.0624,-570
1.4,0.0464,-662
1.4,0.1072,-546
1.4,0.136,-550
1.4,0.0368,-538
1.4,0.0528,-490
1.4,0.1008,-558
1.4,0.056,-562
1.4,0.1648,-470
1.4,0.1776,-554
1.4,0.0656,-510
1.4,0.1008,-522
1.4,0.0464,-522
1.4,0.2608,-658
1.4,0.0464,-486
1.4,0.0368,-574
1.4,0.2384,-626
1.4,0.1712,-534
1.4,0.088,-614
1.4,0.0176,-494
1.4,0.0304,-478
1.4,0.0208,-578
1.4,0.0368,-638
1.4,0.3152,-546
1.4,0.0496,-570
1.4,0.104,-622
1.4,0.1424,-578
1.4,0.0624,-510
1.4,0.0048,-566
1.4,0.1776,-486
1.4,0.2768,-654
1.4,0.1072,-622
1.4,0.0624,-494
1.4,0.2288,-494
1.4,0.2128,-538
1.4,0.2064,-538
1.4,0.1392,-534
1.4,0.2032,-562
1.4,0.2992,-478
1.4,0.1168,-538
1.4,0.2928,-618
1.4,0.0336,-514
1.4,0.0432,-522
1.4,0.0112,-494
1.4,0.2064,-586
1.4,0.1872,-630
1.4,0.0784,-570
1.4,0.2672,-554
1.4,0.0688,-610
1.4,0.1008,-586
1.4,0.2,-570
1.4,0.248,-514
1.4,0.1584,-502
1.4,0.2192,-530
1.4,0.0016,-582
1.4,0.1136,-546
1.4,0.104,-602
1.4,0.12,-674
1.4,0.1616,-586
1.4,0.1424,-514
1.4,0.0016,-582
1.4,0.2384,-570
1.4,0.0144,-550
1.4,0.0592,-470
1.4,0.0368,-606
1.4,0.1168,-546
1.4,0.12,-538
1.4,0.3088,-566
1.4,0.0464,-578
1.4,0.1936,-498
1.4,0.0112,-546
1.4,0.1584,-538
1.4,0.1424,-598
1.4,0.1168,-530
1.4,0.264,-538
1.4,0.2384,-638
1.4,0.088,-526
1.4,0.0784,-522
1.4,0.0176,-518
1.4,0.1264,-546
1.4,0.1232,-538
1.4,0.1552,-470
1.4,0.4432,-622
1.4,0.0176,-646
1.4,0.1488,-610
1.4,0.36,-546
1.4,0.072,-562
1.4,0.1456,-606
1.4,0.136,-530
1.4,0.2288,-602
1.4,0.2448,-522
1.4,0.1008,-550
1.4,0.2224,-622
1.4,0.0944,-590
1.4,0.2736,-562
1.4,0.312,-546
1.4,0.168,-614
1.4,0.0528,-626
1.4,0.1488,-590
1.4,0.152,-590
1.4,0.0176,-514
1.4,0.2,-510
1.4,0.2096,-530
1.4,0.2,-578
1.4,0.0016,-490
1.4,0.2544,-606
1.4,0.2352,-602
1.4,0.2832,-606
1.4,0.0272,-566
1.4,0.1584,-530
1.4,0.024,-490
1.4,0.0304,-526
1.4,0.1808,-658
1.4,0.0944,-526
1.4,0.1712,-422
1.4,0.2256,-574
1.4,0.0432,-498
1.4,0.1168,-550
1.4,0.1584,-606
1.4,0.1104,-470
1.4,0.0144,-630
1.4,0.2352,-542
1.4,0.12,-562
1.4,0.0976,-510
1.4,0.2384,-514
1.4,0.0848,-506
1.4,0.2384,-682
1.4,0.0784,-470
1.4,0.056,-530
1.4,0.072,-494
1.4,0.0176,-546
1.4,0.0016,-562
1.4,0.0112,-554
1.4,0.0784,-606
1.4,0.2416,-554
1.4,0.2672,-534
1.4,0.168,-562
1.4,0.1008,-578
1.4,0.0624,-594
1.4,0.0912,-598
1.4,0.0848,-566
1.4,0.248,-582
1.4,0.0112,-490
1.4,0.04,-566
1.4,0.1072,-630
1.4,0.1648,-522
1.4,0.1904,-542
1.4,0.424,-614
1.4,0.2832,-526
1.4,0.2704,-626
1.4,0.1168,-586
1.4,0.1584,-602
1.4,0.0816,-662
1.4,0.0048,-522
1.4,0.2576,-594
1.4,0.1712,-546
1.4,0.3952,-630
1.4,0.1968,-566
1.4,0.2544,-590
1.4,0.072,-534
1.4,0.2992,-614
1.4,0.1616,-646
1.4,0.056,-614
1.4,0.2736,-622
1.4,0.0208,-570
1.4,0.0272,-570
1.4,0.248,-582
1.4,0.1456,-582
1.4,0.072,-518
1.4,0.2704,-570
1.4,0.3152,-566
1.4,0.0624,-534
1.4,0.024,-622
1.4,0.3856,-598
1.4,0.0784,-546
1.4,0.3952,-626
1.4,0.0496,-566
1.4,0.0112,-582
1.4,0.1712,-642
1.4,0.376,-610
1.4,0.136,-630
1.4,0.0016,-530
1.4,0.024,-574
1.4,0.2192,-506
1.4,0.3248,-618
1.4,0.1488,-650
1.4,0.04,-598
1.4,0.152,-594
1.4,0.04,-538
1.4,0.0432,-502
1.4,0.1456,-586
1.4,0.0528,-606
1.4,0.2512,-506
1.4,0.0912,-626
1.4,0.2096,-546
1.4,0.1904,-590
1.4,0.0592,-598
1.4,0.0432,-582
1.4,0.0016,-518
1.4,0.1584,-622
1.4,0.3312,-622
1.4,0.2224,-518
1.4,0.0944,-602
1.4,0.0304,-626
1.4,0.0432,-622
1.4,0.1424,-534
1.4,0.1296,-582
1.4,0.0208,-614
1.4,0.2,-566
1.4,0.1136,-530
1.4,0.008,-658
1.4,0.1168,-542
1.4,0.3824,-594
1.4,0.0976,-538
1.4,0.1648,-530
1.4,0.0272,-514
1.4,0.1744,-594
1.4,0.0368,-674
1.4,0.0016,-578
1.4,0.0336,-530
1.4,0.1648,-610
1.4,0.0976,-654
1.4,0.04,-546
1.4,0.0432,-630
1.4,0.4112,-586
1.4,0.0464,-574
1.4,0.0016,-518
1.4,0.072,-622
1.4,0.1872,-630
1.4,0.1072,-586
1.4,0.0368,-614
1.4,0.2192,-522
1.4,0.1008,-514
1.4,0.168,-574
1.4,0.2288,-550
1.4,0.0976,-598
1.4,0.1616,-490
1.4,0.0272,-502
1.4,0.2352,-550
1.4,0.3056,-582
1.4,0.2256,-554
1.4,0.0048,-690
1.4,0.1136,-586
1.4,0.0816,-562
1.4,0.3216,-562
1.4,0.0752,-678
1.4,0.1968,-502
1.4,0.0144,-558
1.4,0.4368,-666
1.4,0.0304,-566
1.4,0.0976,-514
1.4,0.0528,-510
1.4,0.2512,-554
1.4,0.0912,-582
1.4,0.0976,-502
1.4,0.2256,-542
1.4,0.2544,-666
1.4,0.1648,-518
1.4,0.0688,-650
1.4,0.0912,-602
1.4,0.0848,-530
1.4,0.2896,-610
1.4,0.0176,-562
1.4,0.1904,-594
1.4,0.0048,-470
1.4,0.0464,-586
1.4,0.2832,-650
1.4,0.0048,-530
1.4,0.1296,-534
1.4,0.4432,-622
1.4,0.1264,-530
1.4,0.0176,-522
1.4,0.1232,-470
1.4,0.1712,-550
1.4,0.0912,-554
1.4,0.296,-590
1.4,0.0688,-582
1.4,0.2512,-630
1.4,0.3984,-678
1.4,0.0048,-678
1.4,0.1552,-522
1.4,0.1712,-630
1.4,0.296,-570
1.4,0.0656,-602
1.4,0.1584,-518
1.4,0.0496,-526
1.4,0.4112,-626
1.4,0.0688,-582
1.4,0.04,-574
1.4,0.488,-678
1.4,0.0656,-526
1.4,0.0912,-558
1.4,0.1104,-534
1.4,0.0496,-622
1.4,0.1968,-498
1.4,0.008,-546
1.4,0.0784,-506
1.4,0.1584,-578
1.4,0.0688,-618
1.4,0.056,-522
1.4,0.1552,-566
1.4,0.3888,-730
1.4,0.232,-530
1.4,0.1296,-558
1.4,0.1232,-550
1.4,0.0272,-570
1.4,0.1552,-518
1.4,0.2672,-582
1.4,0.392,-590
1.4,0.0592,-538
1.4,0.1744,-618
1.4,0.0272,-546
1.4,0.0656,-586
1.4,0.1776,-646
1.4,0.056,-598
1.4,0.088,-542
1.4,0.184,-626
1.4,0.0336,-494
1.4,0.0432,-494
1.4,0.2928,-658
1.4,0.0432,-546
1.4,0.072,-538
1.4,0.0464,-538
1.4,0.0528,-542
1.4,0.0496,-578
1.4,0.3568,-622
1.4,0.2064,-622
1.4,0.1104,-510
1.4,0.1808,-566
1.4,0.328,-614
1.4,0.0528,-510
1.4,0.0656,-578
1.4,0.1104,-626
1.4,0.04,-582
1.4,0.2544,-674
1.4,0.0976,-542
1.4,0.2608,-582
1.4,0.0048,-578
1.4,0.1328,-590
1.4,0.3376,-602
1.4,0.0592,-518
1.4,0.1072,-678
1.4,0.2992,-542
1.4,0.0976,-550
1.4,0.3376,-558
1.4,0.0592,-562
1.4,0.0496,-510
1.4,0.1296,-582
1.4,0.104,-590
1.4,0.1008,-602
1.4,0.2128,-614
1.4,0.2096,-594
1.4,0.072,-594
1.4,0.0816,-582
1.4,0.1552,-570
1.4,0.0592,-550
1.4,0.0176,-418
1.4,0.0944,-562
1.4,0.008,-538
1.4,0.0208,-534
1.4,0.0048,-498
1.4,0.3024,-674
1.4,0.0176,-562
1.4,0.1264,-546
1.4,0.0208,-470
1.4,0.104,-530
1.4,0.024,-494
1.4,0.1424,-586
1.4,0.1168,-526
1.4,0.0688,-554
1.4,0.1712,-534
1.4,0.0208,-534
1.4,0.4112,-582
1.4,0.0208,-566
1.4,0.2096,-610
1.4,0.1168,-578
1.4,0.0048,-546
1.4,0.0528,-534
1.4,0.0912,-586
1.4,0.1648,-526
1.4,0.3792,-602
1.4,0.1296,-558
1.4,0.1904,-694
1.4,0.056,-610
1.4,0.1456,-578
1.4,0.3344,-570
1.4,0.2096,-642
1.4,0.0304,-522
1.4,0.0336,-494
1.4,0.1552,-546
1.4,0.0976,-650
1.4,0.2256,-530
1.4,0.168,-486
1.4,0.1552,-674
1.4,0.1808,-554
1.4,0.1744,-494
1.4,0.296,-690
1.4,0.1456,-554
1.4,0.1744,-574
1.4,0.1904,-658
1.4,0.184,-478
1.4,0.2992,-482
1.4,0.072,-642
1.4,0.0336,-634
1.4,0.2896,-626
1.4,0.1712,-490
1.4,0.056,-566
1.4,0.2288,-586
1.4,0.104,-550
1.4,0.1008,-546
1.4,0.1552,-546
1.4,0.1136,-434
1.4,0.136,-630
1.4,0.2576,-578
1.4,0.0144,-642
1.4,0.0912,-522
1.4,0.0752,-558
1.4,0.0688,-618
1.4,0.2736,-526
1.4,0.0336,-522
1.4,0.1936,-522
1.4,0.5008,-602
1.4,0.0656,-618
1.4,0.0528,-610
1.4,0.0912,-570
1.4,0.2,-510
1.4,0.0752,-494
1.4,0.0016,-514
1.4,0.1456,-710
1.4,0.0688,-610
1.4,0.0752,-510
1.4,0.3024,-686
1.4,0.2352,-554
1.4,0.0528,-574
1.4,0.2512,-630
1.4,0.1232,-446
1.4,0.1424,-534
1.4,0.024,-578
1.4,0.0304,-510
1.4,0.088,-594
1.4,0.1424,-550
1.4,0.2288,-654
1.4,0.024,-562
1.4,0.1072,-610
1.4,0.0688,-574
1.4,0.3728,-638
1.4,0.0496,-602
1.4,0.2576,-602
1.4,0.3344,-662
1.4,0.1904,-530
1.4,0.2064,-578
1.4,0.0432,-634
1.4,0.0336,-550
1.4,0.0016,-586
1.4,0.008,-602
1.4,0.088,-566
1.4,0.0144,-482
1.4,0.0432,-530
1.4,0.024,-598
1.4,0.2,-606
1.4,0.2064,-558
1.4,0.0304,-638
1.4,0.2352,-534
1.4,0.0208,-566
1.4,0.1456,-622
1.4,0.0304,-578
1.4,0.2128,-582
1.4,0.0624,-586
1.4,0.3184,-626
1.4,0.2256,-650
1.4,0.5936,-746
1.4,0.1776,-510
1.4,0.2704,-594
1.4,0.312,-554
1.4,0.0144,-530
1.4,0.104,-462
1.4,0.0656,-562
1.4,0.184,-638
1.4,0.232,-554
1.4,0.2448,-646
1.4,0.0464,-486
1.4,0.072,-594
1.4,0.2,-538
1.4,0.0336,-522
1.4,0.0464,-502
1.4,0.056,-446
1.4,0.008,-538
1.4,0.0432,-510
1.4,0.0944,-530
1.4,0.2896,-546
1.4,0.088,-598
1.4,0.2128,-610
1.4,0.1232,-602
1.4,0.1488,-558
1.4,0.0624,-398
1.4,0.0144,-582
1.4,0.0336,-522
1.4,0.0304,-650
1.4,0.0656,-522
1.4,0.0848,-510
1.4,0.0016,-498
1.4,0.2384,-610
1.4,0.2064,-538
1.4,0.0944,-578
1.4,0.0336,-666
1.4,0.2288,-626
1.4,0.072,-574
1.4,0.0144,-630
1.4,0.2768,-610
1.4,0.0432,-550
1.4,0.0016,-542
1.4,0.2608,-610
1.4,0.2032,-538
1.4,0.2032,-638
1.4,0.0368,-534
1.4,0.0912,-538
1.4,0.056,-514
1.4,0.5072,-682
1.4,0.0912,-522
1.4,0.2352,-554
1.4,0.2128,-618
1.4,0.1232,-530
1.4,0.168,-606
1.4,0.0496,-506
1.4,0.4656,-638
1.4,0.1392,-622
1.4,0.168,-594
1.4,0.1584,-562
1.4,0.216,-642
1.4,0.1168,-542
1.4,0.2032,-626
1.4,0.1328,-550
1.4,0.008,-566
1.4,0.3472,-614
1.4,0.2096,-582
1.4,0.008,-602
1.4,0.1232,-662
1.4,0.0944,-610
1.4,0.0496,-566
1.4,0.1616,-554
1.4,0.2032,-614
1.4,0.0208,-502
1.4,0.2192,-566
1.4,0.2064,-570
1.4,0.1552,-650
1.4,0.1008,-574
1.4,0.3056,-550
1.4,0.0272,-582
1.4,0.184,-506
1.4,0.1456,-554
1.4,0.1552,-534
1.4,0.0528,-610
1.4,0.168,-510
1.4,0.1744,-670
1.4,0.088,-630
1.4,0.1648,-506
1.4,0.056,-510
1.4,0.1712,-574
1.4,0.168,-542
1.4,0.3152,-570
1.4,0.104,-530
1.4,0.2736,-502
1.4,0.4368,-610
1.4,0.0432,-538
1.4,0.1584,-618
1.4,0.0176,-602
1.4,0.0688,-558
1.4,0.0784,-582
1.4,0.264,-526
1.4,0.0272,-554
1.4,0.0528,-506
1.4,0.0784,-570
1.4,0.2864,-498
1.4,0.2352,-518
1.4,0.1072,-602
1.4,0.0272,-510
1.4,0.1136,-526
1.4,0.1392,-614
1.4,0.3088,-590
1.4,0.312,-534
1.4,0.024,-506
1.4,0.1936,-550
1.4,0.0944,-558
1.4,0.1712,-578
1.4,0.0976,-662
1.4,0.0496,-598
1.4,0.2064,-518
1.4,0.3216,-646
1.4,0.0144,-582
1.4,0.072,-594
1.4,0.0048,-638
1.4,0.1232,-546
1.4,0.024,-554
1.4,0.2448,-554
1.4,0.0496,-586
1.4,0.0816,-566
1.4,0.1552,-590
1.4,0.1328,-542
1.4,0.0784,-566
1.4,0.072,-582
1.4,0.0912,-594
1.4,0.008,-614
1.4,0.072,-546
1.4,0.0592,-522
1.4,0.0304,-522
1.4,0.1936,-638
1.4,0.088,-546
1.4,0.056,-542
1.4,0.0784,-538
1.4,0.1456,-506
1.4,0.184,-578
1.4,0.1008,-498
1.4,0.0304,-454
1.4,0.0496,-602
1.4,0.104,-606
1.4,0.1392,-542
1.4,0.3632,-590
1.4,0.0496,-538
1.4,0.1008,-562
1.4,0.0304,-494
1.4,0.2416,-466
1.4,0.0976,-590
1.4,0.008,-674
1.4,0.2064,-562
1.4,0.1136,-574
1.4,0.2512,-570
1.4,0.1424,-498
1.4,0.0912,-498
1.4,0.12,-594
1.4,0.0528,-554
1.4,0.216,-582
1.4,0.0976,-506
1.4,0.3408,-622
1.4,0.0784,-574
1.4,0.3152,-646
1.4,0.0752,-550
1.4,0.0752,-562
1.4,0.1296,-658
1.4,0.088,-590
1.4,0.0336,-578
1.4,0.0912,-606
1.4,0.1712,-554
1.4,0.1296,-586
1.4,0.1232,-630
1.4,0.0944,-590
1.4,0.1968,-642
1.4,0.024,-626
1.4,0.0432,-522
1.4,0.0976,-598
1.4,0.1488,-614
1.4,0.0944,-630
1.4,0.1168,-522
1.4,0.344,-630
1.4,0.0176,-550
1.4,0.2608,-582
1.4,0.2192,-610
1.4,0.264,-654
1.4,0.1776,-502
1.4,0.072,-478
1.4,0.1584,-594
1.4,0.008,-558
1.4,0.1168,-550
1.4,0.1456,-510
1.4,0.1584,-662
1.4,0.0304,-618
1.4,0.1488,-602
1.4,0.0464,-594
1.4,0.024,-498
1.4,0.1072,-630
1.4,0.216,-610
1.4,0.1648,-530
1.4,0.0144,-502
1.4,0.1552,-510
1.4,0.3344,-642
1.4,0.0656,-550
1.4,0.136,-562
1.4,0.184,-670
1.4,0.2608,-566
1.4,0.136,-574
1.4,0.088,-582
1.4,0.0432,-578
1.4,0.1744,-530
1.4,0.2032,-566
1.4,0.3408,-626
1.4,0.0432,-558
1.4,0.0016,-494
1.4,0.2864,-694
1.4,0.2032,-566
1.4,0.168,-602
1.4,0.248,-574
1.4,0.0816,-590
1.4,0.024,-646
1.4,0.024,-610
1.4,0.2256,-598
1.4,0.1584,-558
1.4,0.1104,-522
1.4,0.0528,-606
1.4,0.2704,-570
1.4,0.2992,-606
1.4,0.0656,-546
1.4,0.008,-486
1.4,0.344,-598
1.4,0.12,-486
1.4,0.0912,-538
1.4,0.232,-634
1.4,0.3088,-614
1.4,0.0208,-506
1.4,0.2256,-586
1.4,0.1616,-630
1.4,0.184,-546
1.4,0.0784,-534
1.4,0.2992,-610
1.4,0.0432,-482
1.4,0.0048,-534
1.4,0.0784,-490
1.4,0.264,-538
1.4,0.1136,-446
1.4,0.1776,-606
1.4,0.0656,-502
1.4,0.0976,-634
1.4,0.1712,-558
1.4,0.1008,-542
1.4,0.1392,-586
1.4,0.0048,-598
1.4,0.1648,-538
1.4,0.1392,-482
1.4,0.2096,-558
1.4,0.264,-626
1.4,0.1552,-670
1.4,0.136,-554
1.4,0.1968,-562
1.4,0.3856,-574
1.4,0.0336,-606
1.4,0.168,-630
1.4,0.1136,-446
1.4,0.2416,-614
1.4,0.2224,-538
1.4,0.1264,-518
1.4,0.1648,-542
1.4,0.0144,-546
1.4,0.1136,-610
1.4,0.1808,-554
1.4,0.0272,-522
1.4,0.0112,-570
1.4,0.3824,-586
1.4,0.0464,-510
1.4,0.0688,-570
1.4,0.2064,-498
1.4,0.216,-586
1.4,0.2544,-622
1.4,0.0688,-554
1.4,0.1456,-586
1.4,0.2064,-654
1.4,0.088,-590
1.4,0.4304,-606
1.4,0.168,-586
1.4,0.1008,-482
1.4,0.232,-594
1.4,0.3312,-574
1.4,0.0624,-482
1.4,0.0528,-590
1.4,0.376,-622
1.4,0.232,-518
1.4,0.2736,-542
1.4,0.0592,-526
1.4,0.0912,-562
1.4,0.0336,-566
1.4,0.0944,-570
1.4,0.3696,-578
1.4,0.1584,-582
1.4,0.1392,-550
1.4,0.0048,-590
1.4,0.4208,-694
1.4,0.0432,-562
1.4,0.0368,-606
1.4,0.2096,-578
1.4,0.1904,-526
1.4,0.2896,-586
1.4,0.3856,-590
1.4,0.2192,-594
1.4,0.2576,-626
1.4,0.0016,-594
1.4,0.152,-598
1.4,0.2608,-586
1.4,0.1136,-470
1.4,0.0816,-570
1.4,0.008,-514
1.4,0.1776,-530
1.4,0.0816,-594
1.4,0.12,-522
1.4,0.1072,-598
1.4,0.0496,-526
1.4,0.0592,-562
1.4,0.024,-590
1.4,0.0528,-554
1.4,0.2288,-634
1.4,0.248,-590
1.4,0.232,-602
1.4,0.1168,-586
1.4,0.3088,-590
1.4,0.104,-506
1.4,0.136,-598
1.4,0.024,-622
1.4,0.0336,-562
1.4,0.0208,-550
1.4,0.3184,-578
1.4,0.3408,-550
1.4,0.12,-502
1.4,0.0656,-538
1.4,0.2256,-506
1.4,0.1712,-538
1.4,0.12,-598
1.4,0.3088,-582
1.4,0.008,-646
1.4,0.1616,-642
1.4,0.2672,-582
1.4,0.2416,-530
1.4,0.1072,-534
1.4,0.0368,-526
1.4,0.072,-582
1.4,0.008,-526
1.4,0.2768,-510
1.4,0.1072,-550
1.4,0.2032,-558
1.4,0.1008,-486
1.4,0.0208,-534
1.4,0.2864,-610
1.4,0.1488,-614
1.4,0.152,-494
1.4,0.2608,-622
1.4,0.04,-614
1.4,0.0304,-550
1.4,0.2704,-538
1.4,0.168,-474
1.4,0.104,-538
1.4,0.0304,-590
1.4,0.2352,-602
1.4,0.024,-566
1.4,0.0848,-570
1.4,0.1168,-622
1.4,0.0432,-586
1.4,0.0208,-538
1.4,0.1232,-590
1.4,0.0432,-526
1.4,0.1968,-558
1.4,0.1168,-582
1.4,0.1488,-562
1.4,0.2096,-526
1.4,0.2704,-510
1.4,0.2192,-582
1.4,0.2096,-654
1.4,0.1616,-514
1.4,0.2608,-522
1.4,0.1296,-546
1.4,0.0944,-518
1.4,0.0688,-582
1.4,0.2288,-530
1.4,0.1712,-554
1.4,0.3088,-594
1.4,0.5392,-710
1.4,0.0496,-462
1.4,0.152,-474
1.4,0.2896,-506
1.4,0.008,-538
1.4,0.2384,-570
1.4,0.1712,-574
1.4,0.0176,-674
1.4,0.104,-554
1.4,0.2288,-574
1.4,0.2448,-546
1.4,0.0624,-534
1.4,0.0944,-542
1.4,0.1616,-662
1.4,0.2544,-538
1.4,0.0528,-598
1.4,0.168,-634
1.4,0.1584,-450
1.4,0.04,-594
1.4,0.3888,-598
1.4,0.2064,-642
1.4,0.04,-566
1.4,0.1072,-566
1.4,0.0368,-574
1.4,0.2608,-618
1.4,0.1616,-494
1.4,0.2,-542
1.4,0.1488,-494
1.4,0.168,-598
1.4,0.0752,-590
1.4,0.12,-586
1.4,0.0272,-526
1.4,0.2384,-530
1.4,0.0112,-542
1.4,0.0688,-566
1.4,0.0304,-502
1.4,0.1296,-550
1.4,0.0944,-630
1.4,0.2064,-686
1.4,0.2256,-558
1.4,0.0048,-538
1.4,0.2704,-602
1.4,0.248,-582
1.4,0.36,-574
1.4,0.2544,-578
1.4,0.0752,-558
1.4,0.1488,-598
1.4,0.104,-622
1.4,0.2032,-550
1.4,0.2,-598
1.4,0.2128,-578
1.4,0.008,-506
1.4,0.12,-586
1.4,0.0784,-646
1.4,0.1648,-550
1.4,0.2032,-570
1.4,0.184,-534
1.4,0.3088,-602
1.4,0.1232,-574
1.4,0.2448,-610
1.4,0.168,-594
1.4,0.1264,-610
1.4,0.0528,-526
1.4,0.1904,-566
1.4,0.0368,-546
1.4,0.024,-558
1.4,0.2384,-522
1.4,0.0272,-578
1.4,0.1296,-602
1.4,0.12,-602
1.4,0.2576,-514
1.4,0.2128,-470
1.4,0.0848,-526
1.4,0.2192,-614
1.4,0.2032,-566
1.4,0.1008,-610
1.4,0.0112,-530
1.4,0.1776,-646
1.4,0.0048,-594
1.4,0.072,-618
1.4,0.1328,-578
1.4,0.344,-538
1.4,0.1296,-522
1.4,0.1744,-554
1.4,0.0912,-602
1.4,0.1712,-518
1.4,0.2352,-578
1.4,0.1872,-614
1.4,0.0624,-534
1.4,0.1648,-598
1.4,0.1488,-550
1.4,0.12,-570
1.4,0.0176,-642
1.4,0.3056,-522
1.4,0.0496,-606
1.4,0.184,-594
1.4,0.1264,-578
1.4,0.2032,-646
1.4,0.0528,-538
1.4,0.008,-598
1.4,0.0528,-506
1.4,0.088,-538
1.4,0.0976,-574
1.4,0.3504,-578
1.4,0.0784,-618
1.4,0.1264,-574
1.4,0.0336,-586
1.4,0.024,-566
1.4,0.1136,-466
1.4,0.3056,-518
1.4,0.008,-566
1.4,0.1712,-522
1.4,0.2064,-570
1.4,0.232,-550
1.4,0.2544,-550
1.4,0.1232,-534
1.4,0.024,-574
1.4,0.2576,-530
1.4,0.408,-598
1.4,0.1616,-586
1.4,0.1168,-578
1.4,0.328,-582
1.4,0.1296,-634
1.4,0.248,-562
1.4,0.1552,-526
1.4,0.1488,-526
1.4,0.0304,-594
1.4,0.1104,-530
1.4,0.0176,-514
1.4,0.1136,-542
1.4,0.1264,-554
1.4,0.4144,-610
1.4,0.0016,-458
1.4,0.0752,-590
1.4,0.1872,-590
1.4,0.344,-646
1.4,0.1648,-482
1.4,0.0112,-550
1.4,0.0144,-582
1.4,0.088,-554
1.4,0.2896,-610
1.4,0.2,-610
1.4,0.232,-526
1.4,0.2672,-586
1.4,0.008,-582
1.4,0.1136,-562
1.4,0.1136,-554
1.4,0.0176,-590
1.4,0.152,-518
1.4,0.12,-634
1.4,0.1456,-574
1.4,0.12,-474
1.4,0.3696,-570
1.4,0.1968,-574
1.4,0.1104,-566
1.4,0.2096,-582
1.4,0.1712,-550
1.4,0.104,-534
1.4,0.2576,-566
1.4,0.2064,-590
1.4,0.3504,-650
1.4,0.1936,-534
1.4,0.0496,-562
1.4,0.2448,-534
1.4,0.3152,-554
1.4,0.1904,-518
1.4,0.0144,-602
1.4,0.2096,-610
1.4,0.1616,-474
1.4,0.3056,-446
1.4,0.0304,-498
1.4,0.04,-514
1.4,0.344,-594
1.4,0.0144,-550
1.4,0.056,-622
1.4,0.2224,-538
1.4,0.0336,-486
1.4,0.3792,-630
1.4,0.1584,-678
1.4,0.2512,-542
1.4,0.1072,-522
1.4,0.072,-486
1.4,0.1808,-546
1.4,0.2128,-630
1.4,0.0624,-518
1.4,0.216,-574
1.4,0.1232,-574
1.4,0.008,-522
1.4,0.104,-594
1.4,0.2608,-546
1.4,0.04,-486
1.4,0.1584,-506
1.4,0.1648,-590
1.4,0.1424,-550
1.4,0.1616,-546
1.4,0.136,-562
1.4,0.1552,-490
1.4,0.0016,-506
1.4,0.0912,-526
1.4,0.024,-598
1.4,0.2256,-642
1.4,0.088,-682
1.4,0.0272,-618
1.4,0.3152,-662
1.4,0.2416,-574
1.4,0.1104,-586
1.4,0.0752,-598
1.4,0.3056,-630
1.4,0.0912,-646
1.4,0.1296,-562
1.4,0.0592,-630
1.4,0.1616,-566
1.4,0.0944,-434
1.4,0.1552,-522
1.4,0.136,-538
1.4,0.3088,-606
1.4,0.0304,-526
1.4,0.3056,-562
1.4,0.2576,-566
1.4,0.2288,-598
1.4,0.0528,-642
1.4,0.1168,-574
1.4,0.088,-522
1.4,0.2736,-582
1.4,0.2992,-670
1.4,0.0112,-562
1.4,0.1264,-598
1.4,0.0176,-550
1.4,0.264,-594
1.4,0.1616,-598
1.4,0.0624,-606
1.4,0.168,-606
1.4,0.2,-530
1.4,0.2288,-634
1.4,0.2736,-554
1.4,0.0656,-638
1.4,0.1136,-558
1.4,0.1808,-582
1.4,0.1488,-566
1.4,0.1648,-574
1.4,0.28,-642
1.4,0.408,-610
1.4,0.0016,-538
1.4,0.0496,-578
1.4,0.088,-610
1.4,0.0752,-514
1.4,0.2,-586
1.4,0.0368,-526
1.4,0.0528,-562
1.4,0.1104,-510
1.4,0.2704,-546
1.4,0.2064,-546
1.4,0.2512,-494
1.4,0.3088,-582
1.4,0.376,-554
1.4,0.2224,-566
1.4,0.2,-542
1.4,0.1008,-598
1.4,0.1136,-606
1.4,0.104,-582
1.4,0.1168,-614
1.4,0.088,-478
1.4,0.0784,-614
1.4,0.1584,-542
1.4,0.1744,-514
1.4,0.104,-534
1.4,0.0688,-566
1.4,0.0368,-630
1.4,0.0528,-570
1.4,0.2768,-590
1.4,0.2864,-642
1.4,0.0496,-578
1.4,0.2032,-574
1.4,0.2384,-654
1.4,0.2608,-538
1.4,0.024,-510
1.4,0.2352,-474
1.4,0.2224,-590
1.4,0.0464,-522
1.4,0.2608,-582
1.4,0.1168,-574
1.4,0.088,-598
1.4,0.104,-574
1.4,0.008,-582
1.4,0.056,-626
1.4,0.152,-590
1.4,0.0176,-498
1.4,0.0848,-674
1.4,0.136,-634
1.4,0.2192,-562
1.4,0.152,-494
1.4,0.1008,-586
1.4,0.1808,-546
1.4,0.0656,-534
1.4,0.0432,-542
1.4,0.056,-498
1.4,0.3152,-590
1.4,0.1872,-570
1.4,0.024,-610
1.4,0.0496,-542
1.4,0.072,-554
1.4,0.184,-610
1.4,0.04,-654
1.4,0.1488,-562
1.4,0.1712,-498
1.4,0.1584,-594
1.4,0.0976,-514
1.4,0.1936,-618
1.4,0.2352,-618
1.4,0.0816,-582
1.4,0.184,-566
1.4,0.152,-598
1.4,0.0464,-606
1.4,0.0624,-618
1.4,0.136,-570
1.4,0.0272,-506
1.4,0.3088,-574
1.4,0.1648,-622
1.4,0.0336,-562
1.4,0.2736,-590
1.4,0.3472,-566
1.4,0.168,-558
1.4,0.0752,-574
1.4,0.0752,-630
1.4,0.0784,-514
1.4,0.1936,-642
1.4,0.1488,-566
1.4,0.2704,-726
1.4,0.0624,-450
1.4,0.0016,-506
1.4,0.2352,-534
1.4,0.0592,-546
1.4,0.1648,-530
1.4,0.1488,-582
1.4,0.0304,-550
1.4,0.0784,-514
1.4,0.3472,-638
1.4,0.0016,-494
1.4,0.1936,-626
1.4,0.2384,-630
1.4,0.2032,-538
1.4,0.104,-622
1.4,0.0048,-630
1.4,0.0304,-502
1.4,0.0112,-618
1.4,0.3408,-554
1.4,0.0816,-590
1.4,0.0304,-578
1.4,0.2352,-574
1.4,0.1616,-610
1.4,0.3088,-698
1.4,0.376,-626
1.4,0.088,-558
1.4,0.1168,-610
1.4,0.0112,-598
1.4,0.0816,-566
1.4,0.1968,-590
1.4,0.3664,-646
1.4,0.4592,-614
1.4,0.2512,-594
1.4,0.0624,-562
1.4,0.2384,-630
1.4,0.2,-478
1.4,0.296,-530
1.4,0.2736,-594
1.4,0.0816,-610
1.4,0.1136,-590
1.4,0.2512,-498
1.4,0.0592,-598
1.4,0.104,-490
1.4,0.1616,-634
1.4,0.1264,-586
1.4,0.152,-522
1.4,0.168,-534
1.4,0.0496,-534
1.4,0.0944,-686
1.4,0.1008,-598
1.4,0.0496,-558
1.4,0.4976,-722
1.4,0.1264,-654
1.4,0.0272,-582
1.4,0.1328,-574
1.4,0.1072,-502
1.4,0.1488,-578
1.4,0.0464,-498
1.4,0.1136,-494
1.4,0.0048,-546
1.4,0.0656,-586
1.4,0.0976,-606
1.4,0.0432,-554
1.4,0.2576,-482
1.4,0.2864,-666
1.4,0.0208,-526
1.4,0.2736,-562
1.4,0.1936,-526
1.4,0.2,-594
1.4,0.2256,-630
1.4,0.3056,-622
1.4,0.2,-598
1.4,0.1392,-630
1.4,0.3728,-654
1.4,0.0784,-586
1.4,0.3184,-670
1.4,0.008,-506
1.4,0.1616,-674
1.4,0.0272,-554
1.4,0.2832,-578
1.4,0.1328,-538
1.4,0.1168,-626
1.4,0.2,-530
1.4,0.1168,-598
1.4,0.1168,-574
1.4,0.008,-498
1.4,0.0528,-518
1.4,0.3728,-594
1.4,0.008,-558
1.4,0.0336,-578
1.4,0.104,-606
1.4,0.2128,-594
1.4,0.0912,-610
1.4,0.216,-614
1.4,0.056,-486
1.4,0.2352,-478
1.4,0.232,-590
1.4,0.2192,-550
1.4,0.0272,-550
1.4,0.2256,-526
1.4,0.0752,-538
1.4,0.088,-550
1.4,0.008,-538
1.4,0.1168,-590
1.4,0.1296,-542
1.4,0.1008,-534
1.4,0.152,-586
1.4,0.0848,-522
1.4,0.0464,-594
1.4,0.0688,-666
1.4,0.3408,-594
1.4,0.1872,-546
1.4,0.216,-582
1.4,0.1296,-518
1.4,0.1936,-594
1.4,0.2416,-614
1.4,0.3056,-542
1.4,0.1264,-594
1.4,0.1008,-566
1.4,0.056,-522
1.4,0.04,-534
1.4,0.1488,-570
1.4,0.0048,-554
1.4,0.0208,-566
1.4,0.056,-570
1.4,0.1168,-566
1.4,0.1456,-570
1.4,0.1648,-630
1.4,0.0272,-582
1.4,0.0304,-654
1.4,0.024,-630
1.4,0.1424,-490
1.4,0.1424,-570
1.4,0.12,-602
1.4,0.1232,-514
1.4,0.1392,-546
1.4,0.3632,-634
1.4,0.2288,-562
1.4,0.0432,-518
1.4,0.3664,-594
1.4,0.2064,-646
1.4,0.1104,-602
1.4,0.1104,-518
1.4,0.0464,-610
1.4,0.0912,-642
1.4,0.216,-558
1.4,0.1136,-602
1.4,0.3472,-574
1.4,0.1648,-618
1.4,0.1424,-546
1.4,0.1424,-522
1.4,0.088,-546
1.4,0.1616,-554
1.4,0.1552,-550
1.4,0.1104,-606
1.4,0.008,-514
1.4,0.0944,-590
1.4,0.0944,-530
1.4,0.0976,-514
1.4,0.1008,-470
1.4,0.0304,-598
1.4,0.056,-562
1.4,0.0144,-566
1.4,0.0336,-602
1.4,0.1328,-574
1.4,0.0592,-574
1.4,0.0464,-626
1.4,0.0112,-686
1.4,0.088,-606
1.4,0.0816,-554
1.4,0.1424,-558
1.4,0.264,-534
1.4,0.152,-518
1.4,0.1712,-582
1.4,0.0784,-390
1.4,0.1136,-626
1.4,0.1872,-542
1.4,0.2736,-690
1.4,0.0624,-558
1.4,0.1488,-502
1.4,0.0656,-486
1.4,0.0624,-546
1.4,0.2192,-582
1.4,0.1168,-474
1.4,0.0016,-566
1.4,0.0304,-546
1.4,0.0336,-570
1.4,0.1648,-574
1.4,0.3696,-614
1.4,0.0272,-514
1.4,0.2,-570
1.4,0.0368,-530
1.4,0.1808,-562
1.4,0.0816,-630
1.4,0.0848,-514
1.4,0.0912,-590
1.4,0.104,-650
1.4,0.2512,-606
1.4,0.3248,-578
1.4,0.0784,-670
1.4,0.216,-594
1.4,0.3088,-606
1.4,0.2352,-570
1.4,0.2352,-618
1.4,0.1392,-478
1.4,0.1776,-506
1.4,0.1392,-506
1.4,0.1104,-594
1.4,0.0272,-558
1.4,0.4272,-598
1.4,0.1328,-582
1.4,0.04,-490
1.4,0.1488,-574
1.4,0.2288,-570
1.4,0.0496,-630
1.4,0.2352,-546
1.4,0.0336,-526
1.4,0.008,-506
1.4,0.136,-630
1.4,0.2416,-570
1.4,0.184,-594
1.4,0.2672,-630
1.4,0.2608,-570
1.4,0.0016,-582
1.4,0.2032,-650
1.4,0.2032,-630
1.4,0.0624,-622
1.4,0.0976,-602
1.4,0.088,-498
1.4,0.1136,-518
1.4,0.0176,-578
1.4,0.0976,-566
1.4,0.1584,-602
1.4,0.1008,-586
1.4,0.008,-586
1.4,0.0144,-502
1.4,0.0048,-518
1.4,0.2832,-554
1.4,0.2576,-530
1.4,0.0944,-506
1.4,0.0368,-522
1.4,0.2768,-626
1.4,0.0208,-518
1.4,0.1744,-514
1.4,0.2352,-578
1.4,0.1168,-494
1.4,0.0016,-574
1.4,0.0432,-562
1.4,0.2416,-518
1.4,0.0368,-534
1.4,0.1008,-642
1.4,0.3792,-594
1.4,0.1584,-610
1.4,0.1776,-566
1.4,0.024,-494
1.4,0.072,-598
1.4,0.088,-438
1.4,0.3568,-630
1.4,0.0144,-606
1.4,0.376,-590
1.4,0.072,-506
1.4,0.1488,-558
1.4,0.0496,-678
1.4,0.1296,-526
1.4,0.1712,-602
1.4,0.1072,-502
1.4,0.3632,-630
1.4,0.408,-602
1.4,0.0816,-522
1.4,0.1488,-590
1.4,0.056,-510
1.4,0.1008,-566
1.4,0.0624,-558
1.4,0.072,-450
1.4,0.4976,-642
1.4,0.1264,-666
1.4,0.2544,-566
1.4,0.0592,-602
1.4,0.0112,-586
1.4,0.2128,-634
1.4,0.28,-526
1.4,0.0304,-634
1.4,0.2256,-674
1.4,0.008,-558
1.4,0.104,-542
1.4,0.0176,-554
1.4,0.104,-530
1.4,0.0944,-546
1.4,0.0112,-550
1.4,0.0592,-490
1.4,0.136,-634
1.4,0.1008,-542
1.4,0.0176,-626
1.4,0.1648,-454
1.4,0.1392,-570
1.4,0.5008,-634
1.4,0.1424,-510
1.4,0.0432,-554
1.4,0.0112,-602
1.4,0.0944,-482
1.4,0.104,-454
1.4,0.1552,-490
1.4,0.1136,-518
1.4,0.0784,-578
1.4,0.0016,-514
1.4,0.152,-578
1.4,0.0944,-474
1.4,0.184,-602
1.4,0.1616,-654
1.4,0.008,-530
1.4,0.152,-526
1.4,0.0976,-610
1.4,0.3984,-578
1.4,0.2,-534
1.4,0.2672,-522
1.4,0.1072,-582
1.4,0.3632,-622
1.4,0.4752,-642
1.4,0.0496,-534
1.4,0.1712,-586
1.4,0.04,-614
1.4,0.0048,-554
1.4,0.0624,-538
1.4,0.0848,-518
1.4,0.2128,-550
1.4,0.152,-510
1.4,0.2032,-714
1.4,0.2224,-638
1.4,0.0848,-542
1.4,0.136,-578
1.4,0.232,-606
1.4,0.184,-698
1.4,0.1008,-566
1.4,0.1392,-546
1.4,0.0432,-506
1.4,0.1104,-510
1.4,0.0048,-546
1.4,0.1456,-526
1.4,0.136,-486
1.4,0.184,-530
1.4,0.0208,-522
1.4,0.0528,-566
1.4,0.1776,-630
1.4,0.1232,-574
1.4,0.1968,-526
1.4,0.2,-562
1.4,0.0912,-602
1.4,0.008,-530
1.4,0.1232,-586
1.4,0.28,-642
1.4,0.1296,-626
1.4,0.1072,-526
1.4,0.0528,-570
1.4,0.0784,-566
1.4,0.2704,-618
1.4,0.2064,-574
1.4,0.104,-486
1.4,0.2608,-598
1.4,0.136,-498
1.4,0.0016,-594
1.4,0.2032,-598
1.4,0.0208,-558
1.4,0.216,-518
1.4,0.0592,-614
1.4,0.216,-674
1.4,0.1776,-546
1.4,0.2736,-550
1.4,0.184,-574
1.4,0.0048,-654
1.4,0.0272,-494
1.4,0.0144,-558
1.4,0.296,-554
1.4,0.1552,-590
1.4,0.0464,-538
1.4,0.232,-666
1.4,0.0144,-526
1.4,0.2352,-498
1.4,0.1712,-618
1.4,0.024,-590
1.4,0.216,-554
1.4,0.2064,-622
1.4,0.0816,-582
1.4,0.0176,-578
1.4,0.0464,-458
1.4,0.2064,-594
1.4,0.088,-522
1.4,0.008,-650
1.4,0.0784,-542
1.4,0.0912,-614
1.4,0.2576,-654
1.4,0.0432,-518
1.4,0.0464,-578
1.4,0.2832,-590
1.4,0.0784,-634
1.4,0.264,-578
1.4,0.0112,-610
1.4,0.2608,-562
1.4,0.2384,-522
1.4,0.1808,-558
1.4,0.0528,-594
1.4,0.0176,-526
1.4,0.1264,-574
1.4,0.2448,-518
1.4,0.3504,-606
1.4,0.136,-590
1.4,0.1968,-582
1.4,0.104,-578
1.4,0.1008,-502
1.4,0.36,-614
1.4,0.0848,-558
1.4,0.1584,-566
1.4,0.0848,-538
1.4,0.1104,-506
1.4,0.1712,-450
1.4,0.024,-650
1.4,0.0976,-550
1.4,0.0368,-578
1.4,0.0528,-566
1.4,0.0304,-474
1.4,0.1744,-546
1.4,0.2576,-498
1.4,0.2768,-586
1.4,0.1328,-606
1.4,0.104,-598
1.4,0.0528,-538
1.4,0.1616,-538
1.4,0.0656,-574
1.4,0.1168,-562
1.4,0.0272,-538
1.4,0.184,-578
1.4,0.008,-514
1.4,0.3632,-694
1.4,0.1552,-562
1.4,0.3312,-686
1.4,0.0208,-514
1.4,0.1616,-606
1.4,0.296,-622
1.4,0.12,-546
1.4,0.072,-638
1.4,0.1584,-658
1.4,0.1616,-590
1.4,0.0144,-542
1.4,0.408,-682
1.4,0.0112,-494
1.4,0.0208,-558
1.4,0.0656,-618
1.4,0.2192,-510
1.4,0.0272,-534
1.4,0.0496,-498
1.4,0.0944,-602
1.4,0.088,-530
1.4,0.056,-650
1.4,0.04,-586
1.4,0.04,-638
1.4,0.1936,-590
1.4,0.1392,-478
1.4,0.152,-518
1.4,0.296,-614
1.4,0.0784,-658
1.4,0.0624,-602
1.4,0.1392,-710
1.4,0.2384,-566
1.4,0.0784,-638
1.4,0.1744,-562
1.4,0.216,-558
1.4,0.0176,-586
1.4,0.0784,-526
1.4,0.0112,-582
1.4,0.04,-574
1.4,0.008,-518
1.4,0.0336,-482
1.4,0.0272,-470
1.4,0.0656,-610
1.4,0.0528,-638
1.4,0.1072,-574
1.4,0.2608,-502
1.4,0.488,-674
1.4,0.2128,-494
1.4,0.1904,-530
1.4,0.0208,-502
1.4,0.0272,-562
1.4,0.1168,-598
1.4,0.2128,-470
1.4,0.1456,-614
1.4,0.0368,-602
1.4,0.2768,-602
1.4,0.0496,-558
1.4,0.1104,-578
1.4,0.2512,-538
1.4,0.1168,-558
1.4,0.1264,-614
1.4,0.1936,-590
1.4,0.0528,-566
1.4,0.1232,-682
1.4,0.312,-738
1.4,0.008,-582
1.4,0.0784,-526
1.4,0.0688,-506
1.4,0.0272,-482
1.4,0.216,-542
1.4,0.0624,-538
1.4,0.0752,-518
1.4,0.1488,-578
1.4,0.04,-522
1.4,0.0336,-654
1.4,0.1232,-578
1.4,0.248,-642
1.4,0.1392,-542
1.4,0.088,-570
1.4,0.0592,-546
1.4,0.0112,-578
1.4,0.0336,-478
1.4,0.04,-538
1.4,0.0624,-558
1.4,0.0752,-518
1.4,0.2416,-514
1.4,0.1072,-654
1.4,0.0816,-650
1.4,0.0464,-558
1.4,0.0176,-558
1.4,0.1104,-570
1.4,0.1904,-534
1.4,0.0944,-562
1.4,0.0592,-458
1.4,0.056,-486
1.4,0.2256,-634
1.4,0.2736,-646
1.4,0.056,-470
1.4,0.0144,-522
1.4,0.2896,-626
1.4,0.0944,-610
1.4,0.2512,-578
1.4,0.0496,-546
1.4,0.1328,-522
1.4,0.1008,-606
1.4,0.1552,-570
1.4,0.36,-622
1.4,0.2064,-494
1.4,0.1872,-518
1.4,0.2832,-630
1.4,0.136,-530
1.4,0.1936,-562
1.4,0.2064,-546
1.4,0.1424,-618
1.4,0.2576,-570
1.4,0.0144,-570
1.4,0.2864,-578
1.4,0.1328,-514
1.4,0.232,-618
1.4,0.0432,-578
1.4,0.0752,-594
1.4,0.1232,-622
1.4,0.2064,-614
1.4,0.1008,-510
1.4,0.1008,-506
1.4,0.12,-538
1.4,0.2736,-550
1.4,0.0656,-530
1.4,0.1008,-566
1.4,0.0208,-510
1.4,0.0944,-574
1.4,0.2,-602
1.4,0.1296,-590
1.4,0.0624,-530
1.4,0.0112,-558
1.4,0.2416,-438
1.4,0.0336,-610
1.4,0.1264,-486
1.4,0.4336,-650
1.4,0.1136,-566
1.4,0.1392,-514
1.4,0.0272,-586
1.4,0.0688,-598
1.4,0.1456,-546
1.4,0.0368,-582
1.4,0.1328,-486
1.4,0.1488,-554
1.4,0.184,-614
1.4,0.3216,-554
1.4,0.264,-606
1.4,0.168,-566
1.4,0.2256,-566
1.4,0.0272,-702
1.4,0.2032,-566
1.4,0.024,-462
1.4,0.3152,-638
1.4,0.1328,-498
1.4,0.0048,-546
1.4,0.2256,-606
1.4,0.0496,-630
1.4,0.376,-626
1.4,0.056,-570
1.4,0.1552,-538
1.4,0.2384,-598
1.4,0.2192,-594
1.4,0.0624,-534
1.4,0.088,-562
1.4,0.1808,-510
1.4,0.056,-642
1.4,0.0304,-530
1.4,0.0848,-578
1.4,0.1104,-594
1.4,0.088,-658
1.4,0.024,-594
1.4,0.0464,-554
1.4,0.024,-598
1.4,0.056,-490
1.4,0.0176,-462
1.4,0.0752,-526
1.4,0.408,-602
1.4,0.3792,-526
1.4,0.1168,-678
1.4,0.0464,-610
1.4,0.1008,-506
1.4,0.12,-658
1.4,0.0368,-602
1.4,0.1808,-526
1.4,0.0592,-626
1.4,0.0304,-646
1.4,0.0368,-510
1.4,0.0208,-562
1.4,0.1296,-578
1.4,0.0976,-566
1.4,0.1328,-526
1.4,0.0592,-502
1.4,0.3856,-618
1.4,0.1296,-530
1.4,0.1232,-518
1.4,0.024,-478
1.4,0.1072,-550
1.4,0.0272,-534
1.4,0.0016,-610
1.4,0.1424,-510
1.4,0.296,-614
1.4,0.2,-586
1.4,0.1264,-650
1.4,0.0528,-582
1.4,0.136,-586
1.4,0.2768,-658
1.4,0.104,-614
1.4,0.2672,-642
1.4,0.4176,-606
1.4,0.0304,-502
1.4,0.2064,-606
1.4,0.056,-570
1.4,0.2576,-606
1.4,0.1296,-594
1.4,0.2256,-582
1.4,0.0944,-562
1.4,0.0272,-510
1.4,0.0112,-546
1.4,0.3344,-554
1.4,0.2224,-490
1.4,0.2608,-558
1.4,0.0368,-642
1.4,0.2512,-566
1.4,0.1904,-546
1.4,0.0048,-522
1.4,0.0272,-538
1.4,0.2896,-630
1.4,0.2736,-610
1.4,0.0304,-550
1.4,0.3408,-602
1.4,0.0688,-626
1.4,0.0336,-506
1.4,0.0784,-526
1.4,0.1552,-618
1.4,0.056,-478
1.4,0.0112,-538
1.4,0.0848,-514
1.4,0.3504,-606
1.4,0.1232,-530
1.4,0.1776,-578
1.4,0.0752,-534
1.4,0.04,-682
1.4,0.1328,-530
1.4,0.1456,-526
1.4,0.024,-614
1.4,0.0368,-514
1.4,0.0432,-598
1.4,0.1456,-578
1.4,0.1968,-502
1.4,0.1264,-570
1.4,0.0816,-546
1.4,0.3312,-582
1.4,0.2032,-614
1.4,0.104,-546
1.4,0.0528,-566
1.4,0.0432,-574
1.4,0.1424,-566
1.4,0.1648,-474
1.4,0.12,-534
1.4,0.0208,-542
1.4,0.1136,-542
1.4,0.2672,-622
1.4,0.0592,-582
1.4,0.1872,-630
1.4,0.0528,-550
1.4,0.0656,-534
1.4,0.0944,-626
1.4,0.0464,-486
1.4,0.248,-618
1.4,0.1616,-614
1.4,0.04,-514
1.4,0.04,-550
1.4,0.0464,-606
1.4,0.264,-634
1.4,0.2256,-530
1.4,0.2736,-550
1.4,0.2864,-618
1.4,0.3088,-666
1.4,0.024,-590
1.4,0.1232,-570
1.4,0.0816,-738
1.4,0.0208,-526
1.4,0.04,-606
1.4,0.136,-534
1.4,0.136,-590
1.4,0.1232,-514
1.4,0.0624,-510
1.4,0.056,-574
1.4,0.0688,-566
1.4,0.0592,-638
1.4,0.184,-506
1.4,0.2288,-638
1.4,0.0432,-518
1.4,0.0496,-550
1.4,0.2,-534
1.4,0.2224,-534
1.4,0.0336,-654
1.4,0.0368,-566
1.4,0.1584,-618
1.4,0.1424,-554
1.4,0.04,-578
1.4,0.1008,-602
1.4,0.0272,-590
1.4,0.1936,-682
1.4,0.0944,-590
1.4,0.0976,-510
1.4,0.024,-614
1.4,0.0592,-562
1.4,0.0848,-566
1.4,0.072,-618
1.4,0.1552,-622
1.4,0.3728,-670
1.4,0.0656,-570
1.4,0.1104,-550
1.4,0.056,-522
1.4,0.04,-534
1.4,0.1296,-514
1.4,0.2128,-578
1.4,0.312,-582
1.4,0.0144,-618
1.4,0.3728,-622
1.4,0.3792,-678
1.4,0.1392,-582
1.4,0.024,-654
1.4,0.0176,-470
1.4,0.024,-578
1.4,0.024,-562
1.4,0.008,-542
1.4,0.0304,-586
1.4,0.136,-570
1.4,0.3888,-650
1.4,0.1392,-590
1.4,0.3504,-634
1.4,0.0752,-530
1.4,0.0368,-506
1.4,0.0848,-534
1.4,0.3216,-558
1.4,0.168,-458
1.4,0.072,-502
1.4,0.0688,-538
1.4,0.3984,-586
1.4,0.184,-562
1.4,0.12,-610
1.4,0.0656,-482
1.4,0.0624,-666
1.4,0.088,-578
1.4,0.0784,-534
1.4,0.0976,-474
1.4,0.0816,-518
1.4,0.0368,-542
1.4,0.3952,-654
1.4,0.1552,-466
1.4,0.2992,-554
1.4,0.3024,-614
1.4,0.2896,-562
1.4,0.0976,-602
1.4,0.12,-602
1.4,0.4016,-574
1.4,0.0624,-502
1.4,0.0144,-458
1.4,0.0304,-506
1.4,0.184,-506
1.4,0.0912,-530
1.4,0.2,-618
1.4,0.1616,-534
1.4,0.0976,-510
1.4,0.0656,-602
1.4,0.0304,-530
1.4,0.0048,-578
1.4,0.1072,-506
1.4,0.2416,-594
1.4,0.1584,-558
1.4,0.088,-506
1.4,0.1008,-586
1.4,0.0656,-558
1.4,0.0624,-458
1.4,0.0144,-466
1.4,0.0656,-518
1.4,0.136,-574
1.4,0.3056,-666
1.4,0.2192,-482
1.4,0.0848,-630
1.4,0.2032,-550
1.4,0.2448,-570
1.4,0.2448,-506
1.4,0.0944,-534
1.4,0.2128,-646
1.4,0.2064,-590
1.4,0.1616,-478
1.4,0.0624,-530
1.4,0.2992,-570
1.4,0.0368,-578
1.4,0.0336,-570
1.4,0.2704,-566
1.4,0.1488,-554
1.4,0.0752,-514
1.4,0.1104,-642
1.4,0.3312,-602
1.4,0.136,-622
1.4,0.0592,-522
1.4,0.0144,-638
1.4,0.0336,-526
1.4,0.2896,-674
1.4,0.232,-566
1.4,0.0816,-554
1.4,0.0112,-610
1.4,0.136,-550
1.4,0.3344,-514
1.4,0.3152,-566
1.4,0.0848,-518
1.4,0.0432,-530
1.4,0.2832,-602
1.4,0.1392,-598
1.4,0.0976,-574
1.4,0.3472,-510
1.4,0.0528,-514
1.4,0.0784,-526
1.4,0.3216,-622
1.4,0.296,-534
1.4,0.2768,-602
1.4,0.1328,-570
1.4,0.0848,-530
1.4,0.0848,-558
1.4,0.1392,-558
1.4,0.0592,-530
1.4,0.1456,-442
1.4,0.008,-606
1.4,0.2032,-542
1.4,0.1328,-478
1.4,0.0816,-450
1.4,0.328,-522
1.4,0.2384,-642
1.4,0.1744,-582
1.4,0.1616,-530
1.4,0.184,-598
1.4,0.0112,-530
1.4,0.2,-654
1.4,0.2256,-530
1.4,0.0592,-602
1.4,0.1584,-538
1.4,0.1328,-646
1.4,0.0496,-586
1.4,0.2352,-498
1.4,0.0304,-598
1.4,0.2256,-582
1.4,0.0112,-622
1.4,0.0048,-622
1.4,0.0912,-494
1.4,0.1072,-570
1.4,0.0272,-586
1.4,0.024,-518
1.4,0.1584,-526
1.4,0.008,-546
1.4,0.0336,-530
1.4,0.008,-534
1.4,0.0688,-458
1.4,0.0784,-574
1.4,0.2128,-598
1.4,0.328,-622
1.4,0.2352,-594
1.4,0.0816,-562
1.4,0.04,-450
1.4,0.0432,-546
1.4,0.1488,-550
1.4,0.0688,-570
1.4,0.0976,-526
1.4,0.1264,-574
1.4,0.152,-586
1.4,0.0976,-526
1.4,0.136,-562
1.4,0.0304,-546
1.4,0.152,-570
1.4,0.0432,-554
1.4,0.008,-542
1.4,0.1904,-598
1.4,0.2416,-530
1.4,0.2544,-534
1.4,0.12,-510
1.4,0.0304,-614
1.4,0.0432,-574
1.4,0.1008,-494
1.4,0.0464,-550
1.4,0.0336,-442
1.4,0.2704,-638
1.4,0.0944,-510
1.4,0.1648,-562
1.4,0.0464,-594
1.4,0.1808,-590
1.4,0.1328,-570
1.4,0.04,-574
1.4,0.104,-558
1.4,0.0528,-574
1.4,0.3152,-538
1.4,0.3664,-686
1.4,0.2256,-618
1.4,0.2288,-670
1.4,0.0624,-566
1.4,0.3824,-642
1.4,0.0048,-578
1.4,0.3408,-574
1.4,0.0016,-534
1.4,0.472,-626
1.4,0.2064,-670
1.4,0.0272,-526
1.4,0.2576,-578
1.4,0.0208,-606
1.4,0.2096,-570
1.4,0.2384,-554
1.4,0.3088,-606
1.4,0.0336,-582
1.4,0.2192,-590
1.4,0.104,-570
1.4,0.152,-630
1.4,0.1584,-610
1.4,0.1072,-614
1.4,0.0368,-574
1.4,0.2192,-590
1.4,0.1104,-642
1.4,0.088,-490
1.4,0.0848,-606
1.4,0.0304,-558
1.4,0.1648,-506
1.4,0.0752,-566
1.4,0.0464,-542
1.4,0.0592,-594
1.4,0.088,-578
1.4,0.1136,-526
1.4,0.296,-582
1.4,0.1712,-590
1.4,0.056,-514
1.4,0.0176,-574
1.4,0.0752,-578
1.4,0.024,-590
1.4,0.1744,-598
1.4,0.0592,-566
1.4,0.12,-578
1.4,0.0624,-570
1.4,0.0848,-614
1.4,0.0784,-522
1.4,0.1168,-514
1.4,0.0784,-546
1.4,0.072,-598
1.4,0.12,-594
1.4,0.184,-514
1.4,0.008,-630
1.4,0.216,-622
1.4,0.2576,-602
1.4,0.232,-610
1.4,0.2064,-526
1.4,0.0784,-538
1.4,0.2544,-550
1.4,0.072,-526
1.4,0.072,-494
1.4,0.0112,-638
1.4,0.136,-562
1.4,0.1328,-558
1.4,0.312,-582
1.4,0.2704,-582
1.4,0.2576,-598
1.4,0.0944,-566
1.4,0.1072,-534
1.4,0.0912,-534
1.4,0.248,-522
1.4,0.2832,-502
1.4,0.2672,-582
1.4,0.2832,-586
1.4,0.2416,-550
1.4,0.024,-622
1.4,0.0944,-570
1.4,0.0592,-550
1.4,0.1456,-466
1.4,0.1104,-574
1.4,0.1168,-666
1.4,0.0784,-578
1.4,0.0656,-610
1.4,0.0976,-590
1.4,0.2096,-534
1.4,0.0464,-574
1.4,0.216,-562
1.4,0.0112,-558
1.4,0.0048,-546
1.4,0.0592,-606
1.4,0.2704,-602
1.4,0.1808,-534
1.4,0.0336,-590
1.4,0.0048,-486
1.4,0.3472,-650
1.4,0.3728,-642
1.4,0.0304,-494
1.4,0.1136,-430
1.4,0.168,-610
1.4,0.1712,-602
1.4,0.024,-526
1.4,0.1232,-490
1.4,0.152,-510
1.4,0.12,-638
1.4,0.232,-606
1.4,0.1008,-610
1.4,0.0784,-554
1.4,0.0432,-646
1.4,0.1136,-642
1.4,0.0112,-538
1.4,0.0464,-518
1.4,0.088,-566
1.4,0.376,-498
1.4,0.216,-602
1.4,0.0112,-534
1.4,0.2288,-634
1.4,0.1424,-578
1.4,0.0368,-478
1.4,0.0944,-622
1.4,0.2928,-638
1.4,0.2544,-550
1.4,0.1968,-610
1.4,0.2736,-526
1.4,0.2672,-554
1.4,0.2864,-570
1.4,0.0144,-674
1.4,0.1424,-602
1.4,0.1776,-542
1.4,0.2672,-558
1.4,0.024,-482
1.4,0.0048,-554
1.4,0.264,-530
1.4,0.0112,-594
1.4,0.0112,-666
1.4,0.1488,-526
1.4,0.024,-546
1.4,0.04,-550
1.4,0.184,-610
1.4,0.1744,-550
1.4,0.0144,-638
1.4,0.3312,-582
1.4,0.0816,-598
1.4,0.1008,-542
1.4,0.1136,-542
1.4,0.1424,-602
1.4,0.1328,-590
1.4,0.424,-686
1.4,0.0912,-630
1.4,0.2416,-602
1.4,0.1424,-574
1.4,0.2544,-590
1.4,0.0048,-490
1.4,0.0144,-554
1.4,0.0272,-586
1.4,0.152,-574
1.4,0.1072,-586
1.4,0.0912,-602
1.4,0.0592,-566
1.4,0.1328,-558
1.4,0.1232,-578
1.4,0.0144,-598
1.4,0.0336,-474
1.4,0.3088,-570
1.4,0.0368,-494
1.4,0.0336,-554
1.4,0.3376,-658
1.4,0.1168,-530
1.4,0.0048,-538
1.4,0.0848,-494
1.4,0.1072,-510
1.4,0.0752,-530
1.4,0.2064,-562
1.4,0.1008,-522
1.4,0.0304,-526
1.4,0.2512,-674
1.4,0.0304,-558
1.4,0.0592,-598
1.4,0.0272,-558
1.4,0.104,-598
1.4,0.1712,-618
1.4,0.168,-538
1.4,0.008,-602
1.4,0.184,-606
1.4,0.2672,-518
1.4,0.1616,-494
1.4,0.024,-558
1.4,0.0496,-590
1.4,0.072,-570
1.4,0.0528,-574
1.4,0.1616,-570
1.4,0.1648,-558
1.4,0.264,-602
1.4,0.024,-490
1.4,0.1072,-622
1.4,0.2512,-630
1.4,0.0432,-506
1.4,0.0048,-498
1.4,0.12,-594
1.4,0.0656,-606
1.4,0.3792,-702
1.4,0.1232,-534
1.4,0.0656,-550
1.4,0.0432,-614
1.4,0.1008,-570
1.4,0.1168,-582
1.4,0.2576,-562
1.4,0.1744,-578
1.4,0.1168,-546
1.4,0.1296,-670
1.4,0.1168,-534
1.4,0.104,-578
1.4,0.0496,-658
1.4,0.2192,-502
1.4,0.264,-534
1.4,0.0432,-538
1.4,0.088,-606
1.4,0.1008,-586
1.4,0.1648,-650
1.4,0.0688,-530
1.4,0.1776,-542
1.4,0.1904,-630
1.4,0.1936,-506
1.4,0.344,-630
1.4,0.1936,-610
1.4,0.1168,-570
1.4,0.0624,-554
1.4,0.2576,-586
1.4,0.0368,-498
1.4,0.0624,-578
1.4,0.0112,-578
1.4,0.0816,-562
1.4,0.1552,-490
1.4,0.0144,-454
1.4,0.3312,-642
1.4,0.0784,-598
1.4,0.184,-622
1.4,0.0656,-506
1.4,0.1904,-574
1.4,0.0144,-590
1.4,0.1616,-574
1.4,0.1744,-590
1.4,0.136,-486
1.4,0.0336,-526
1.4,0.1296,-522
1.4,0.1424,-482
1.4,0.04,-554
1.4,0.0464,-578
1.4,0.3248,-694
1.4,0.0592,-558
1.4,0.1296,-594
1.4,0.0656,-518
1.4,0.1136,-518
1.4,0.0144,-586
1.4,0.0016,-542
1.4,0.056,-490
1.4,0.0112,-434
1.4,0.0112,-554
1.4,0.0528,-650
1.4,0.008,-502
1.4,0.2288,-550
1.4,0.0208,-558
1.4,0.2256,-654
1.4,0.1072,-554
1.4,0.0656,-542
1.4,0.0912,-478
1.4,0.0624,-614
1.4,0.1776,-466
1.4,0.1456,-654
1.4,0.0048,-574
1.4,0.104,-574
1.4,0.136,-586
1.4,0.2192,-526
1.4,0.0112,-550
1.4,0.0496,-574
1.4,0.0112,-518
1.4,0.1104,-530
1.4,0.3024,-634
1.4,0.072,-574
1.4,0.168,-562
1.4,0.0016,-586
1.4,0.168,-558
1.4,0.3632,-602
1.4,0.1296,-538
1.4,0.0464,-486
1.4,0.088,-510
1.4,0.056,-546
1.4,0.1072,-562
1.4,0.0112,-522
1.4,0.1712,-586
1.4,0.1456,-590
1.4,0.0464,-610
1.4,0.1808,-634
1.4,0.0176,-510
1.4,0.1712,-526
1.4,0.0016,-526
1.4,0.0048,-614
1.4,0.1296,-526
1.4,0.056,-622
1.4,0.3344,-666
1.4,0.0336,-498
1.4,0.312,-546
1.4,0.2512,-618
1.4,0.2,-510
1.4,0.2704,-622
1.4,0.0528,-566
1.4,0.0272,-514
1.4,0.2224,-598
1.4,0.248,-534
1.4,0.152,-606
1.4,0.152,-566
1.4,0.1424,-574
1.4,0.2544,-538
1.4,0.1584,-566
1.4,0.2736,-694
1.4,0.0848,-610
1.4,0.0816,-486
1.4,0.0208,-570
1.4,0.072,-578
1.4,0.2384,-546
1.4,0.1072,-566
1.4,0.3376,-550
1.4,0.0688,-474
1.4,0.1296,-626
1.4,0.0592,-538
1.4,0.12,-586
1.4,0.2064,-646
1.4,0.2416,-602
1.4,0.0688,-550
1.4,0.0464,-558
1.4,0.2,-550
1.4,0.0624,-510
1.4,0.1968,-530
1.4,0.1584,-614
1.4,0.0272,-586
1.4,0.1104,-574
1.4,0.0208,-626
1.4,0.1136,-582
1.4,0.056,-570
1.4,0.088,-594
1.4,0.0528,-446
1.4,0.1456,-650
1.4,0.1072,-510
1.4,0.2032,-666
1.4,0.2096,-578
1.4,0.1872,-614
1.4,0.2384,-562
1.4,0.104,-550
1.4,0.2288,-638
1.4,0.2512,-490
1.4,0.3184,-618
1.4,0.0528,-610
1.4,0.0368,-590
1.4,0.1936,-514
1.4,0.0368,-522
1.4,0.0848,-570
1.4,0.1712,-642
1.4,0.2352,-538
1.4,0.0496,-646
1.4,0.104,-490
1.4,0.0272,-650
1.4,0.328,-602
1.4,0.0368,-458
1.4,0.1008,-582
1.4,0.1552,-602
1.4,0.1744,-546
1.4,0.1744,-574
1.4,0.168,-558
1.4,0.0752,-554
1.4,0.168,-622
1.4,0.1072,-542
1.4,0.1744,-546
1.4,0.2032,-482
1.4,0.0944,-590
1.4,0.1008,-574
1.4,0.0944,-602
1.4,0.2864,-582
1.4,0.3088,-598
1.4,0.0848,-558
1.4,0.1936,-582
1.4,0.0048,-574
1.4,0.2128,-558
1.4,0.0912,-574
1.4,0.2224,-626
1.4,0.12,-562
1.4,0.2288,-578
1.4,0.056,-606
1.4,0.0752,-642
1.4,0.1392,-502
1.4,0.136,-594
1.4,0.4208,-518
1.4,0.2416,-530
1.4,0.0464,-586
1.4,0.2384,-586
1.4,0.1968,-574
1.4,0.0976,-526
1.4,0.0176,-542
1.4,0.1712,-610
1.4,0.024,-590
1.4,0.0944,-610
1.4,0.1072,-578
1.4,0.1264,-582
1.4,0.0048,-494
1.4,0.232,-574
1.4,0.3152,-606
1.4,0.216,-490
1.4,0.0624,-574
1.4,0.2288,-634
1.4,0.0112,-582
1.4,0.1488,-502
1.4,0.0208,-606
1.4,0.0272,-578
1.4,0.216,-502
1.4,0.0144,-486
1.4,0.2128,-558
1.4,0.088,-538
1.4,0.104,-554
1.4,0.344,-570
1.4,0.2032,-526
1.4,0.0048,-558
1.4,0.168,-490
1.4,0.2352,-498
1.4,0.088,-618
1.4,0.0208,-566
1.4,0.0432,-582
1.4,0.0464,-522
1.4,0.1648,-574
1.4,0.152,-518
1.4,0.04,-490
1.4,0.2384,-530
1.4,0.0944,-406
1.4,0.1136,-598
1.4,0.0656,-522
1.4,0.1296,-546
1.4,0.1552,-534
1.4,0.2512,-582
1.4,0.28,-522
1.4,0.0752,-530
1.4,0.0752,-566
1.4,0.0496,-510
1.4,0.1392,-598
1.4,0.1232,-598
1.4,0.1776,-594
1.4,0.0208,-582
1.4,0.1296,-506
1.4,0.0464,-574
1.4,0.1616,-438
1.4,0.0784,-534
1.4,0.1744,-514
1.4,0.0688,-586
1.4,0.072,-574
1.4,0.0016,-542
1.4,0.1488,-518
1.4,0.0336,-554
1.4,0.2512,-562
1.4,0.1872,-542
1.4,0.2192,-522
1.4,0.0336,-590
1.4,0.2864,-618
1.4,0.0688,-590
1.4,0.3056,-518
1.4,0.3344,-614
1.4,0.1872,-594
1.4,0.0048,-546
1.4,0.104,-606
1.4,0.2416,-626
1.4,0.296,-662
1.4,0.0848,-594
1.4,0.2672,-510
1.4,0.1392,-566
1.4,0.1808,-606
1.4,0.3216,-586
1.4,0.1936,-590
1.4,0.0848,-598
1.4,0.0112,-590
1.4,0.0304,-498
1.4,0.0016,-550
1.4,0.1232,-610
1.4,0.152,-606
1.4,0.0368,-510
1.4,0.2064,-510
1.4,0.0976,-566
1.4,0.0272,-558
1.4,0.0976,-522
1.4,0.0656,-486
1.4,0.1168,-546
1.4,0.184,-554
1.4,0.104,-550
1.4,0.0368,-582
1.4,0.232,-518
1.4,0.008,-614
1.4,0.0368,-526
1.4,0.232,-502
1.4,0.12,-566
1.4,0.0272,-554
1.4,0.0016,-482
1.4,0.3376,-570
1.4,0.1584,-498
1.4,0.0016,-622
1.4,0.232,-582
1.4,0.1904,-606
1.4,0.2032,-662
1.4,0.1072,-554
1.4,0.0688,-534
1.4,0.1104,-518
1.4,0.1264,-558
1.4,0.0144,-558
1.4,0.0144,-450
1.4,0.056,-658
1.4,0.0432,-546
1.4,0.1104,-546
1.4,0.1136,-626
1.4,0.216,-534
1.4,0.008,-534
1.4,0.2672,-650
1.4,0.2064,-662
1.4,0.1936,-586
1.4,0.0912,-622
1.4,0.024,-562
1.4,0.296,-618
1.4,0.0496,-490
1.4,0.0496,-594
1.4,0.072,-546
1.4,0.1168,-642
1.4,0.1552,-574
1.4,0.1552,-470
1.4,0.3472,-562
1.4,0.2,-594
1.4,0.008,-610
1.4,0.1168,-574
1.4,0.0624,-570
1.4,0.1392,-602
1.4,0.296,-582
1.4,0.1424,-554
1.4,0.0144,-546
1.4,0.1488,-570
1.4,0.0752,-506
1.4,0.0208,-554
1.4,0.2416,-622
1.4,0.1136,-530
1.4,0.0368,-530
1.4,0.3664,-618
1.4,0.1008,-578
1.4,0.2352,-582
1.4,0.2896,-674
1.4,0.04,-618
1.4,0.1008,-642
1.4,0.0656,-626
1.4,0.0944,-490
1.4,0.0304,-534
1.4,0.0592,-642
1.4,0.1808,-626
1.4,0.312,-646
1.4,0.1168,-518
1.4,0.0112,-586
1.4,0.3184,-526
1.4,0.12,-562
1.4,0.1072,-526
1.4,0.0592,-614
1.4,0.3344,-570
1.4,0.0816,-514
1.4,0.152,-610
1.4,0.104,-554
1.4,0.072,-598
1.4,0.1808,-570
1.4,0.0464,-470
1.4,0.0688,-578
1.4,0.1712,-582
1.4,0.1744,-646
1.4,0.0592,-534
1.4,0.1008,-522
1.4,0.072,-622
1.4,0.0432,-554
1.4,0.072,-538
1.4,0.2064,-486
1.4,0.0112,-478
1.4,0.0848,-594
1.4,0.3376,-610
1.4,0.0336,-550
1.4,0.136,-574
1.4,0.2288,-578
1.4,0.0112,-650
1.4,0.0912,-538
1.4,0.0208,-634
1.4,0.1232,-586
1.4,0.088,-502
1.4,0.1136,-566
1.4,0.1104,-534
1.4,0.3376,-602
1.4,0.0016,-542
1.4,0.0336,-614
1.4,0.1264,-702
1.4,0.1968,-622
1.4,0.1296,-630
1.4,0.1456,-490
1.4,0.1936,-606
1.4,0.0784,-602
1.4,0.1808,-486
1.4,0.072,-522
1.4,0.1232,-574
1.4,0.0528,-518
1.4,0.0048,-582
1.4,0.0432,-554
1.4,0.168,-578
1.4,0.104,-622
1.4,0.3344,-574
1.4,0.1072,-582
1.4,0.0304,-518
1.4,0.1008,-530
1.4,0.04,-598
1.4,0.2224,-594
1.4,0.1904,-590
1.4,0.0464,-646
1.4,0.1136,-542
1.4,0.0944,-518
1.4,0.1008,-566
1.4,0.2672,-598
1.4,0.184,-598
1.4,0.072,-682
1.4,0.0752,-586
1.4,0.1744,-594
1.4,0.024,-566
1.4,0.0336,-606
1.4,0.2032,-502
1.4,0.2384,-578
1.4,0.2352,-606
1.4,0.0848,-590
1.4,0.1872,-678
1.4,0.1296,-554
1.4,0.0272,-594
1.4,0.1616,-602
1.4,0.0656,-578
1.4,0.2032,-466
1.4,0.056,-522
1.4,0.408,-622
1.4,0.184,-622
1.4,0.5008,-618
1.4,0.1008,-526
1.4,0.3056,-550
1.4,0.1936,-550
1.4,0.2096,-510
1.4,0.1648,-562
1.4,0.0016,-534
1.4,0.0016,-666
1.4,0.3056,-506
1.4,0.0048,-502
1.4,0.1008,-602
1.4,0.0176,-578
1.4,0.2768,-626
1.4,0.1616,-582
1.4,0.264,-614
1.4,0.232,-562
1.4,0.4464,-722
1.4,0.0528,-566
1.4,0.136,-618
1.4,0.0304,-566
1.4,0.1456,-562
1.4,0.072,-626
1.4,0.0176,-486
1.4,0.088,-506
1.4,0.024,-554
1.4,0.3952,-650
1.4,0.1072,-582
1.4,0.0592,-538
1.4,0.2288,-618
1.4,0.0688,-610
1.4,0.008,-554
1.4,0.0336,-566
1.4,0.0176,-558
1.4,0.264,-558
1.4,0.12,-570
1.4,0.2224,-490
1.4,0.0368,-606
1.4,0.0688,-530
1.4,0.296,-578
1.4,0.056,-526
1.4,0.1872,-626
1.4,0.104,-578
1.4,0.1456,-562
1.4,0.1104,-538
1.4,0.0784,-522
1.4,0.184,-590
1.4,0.2512,-518
1.4,0.0368,-570
1.4,0.0976,-450
1.4,0.1808,-542
1.4,0.0848,-602
1.4,0.0464,-534
1.4,0.1136,-518
1.4,0.1424,-618
1.4,0.2352,-614
1.4,0.3792,-534
1.4,0.1168,-542
1.4,0.2512,-674
1.4,0.1552,-566
1.4,0.0272,-602
1.4,0.2096,-634
1.4,0.1936,-658
1.4,0.1648,-474
1.4,0.0432,-586
1.4,0.04,-542
1.4,0.12,-542
1.4,0.1456,-522
1.4,0.056,-522
1.4,0.472,-670
1.4,0.0112,-618
1.4,0.1808,-534
1.4,0.0976,-518
1.4,0.152,-662
1.4,0.072,-498
1.4,0.2768,-594
1.4,0.1776,-506
1.4,0.1328,-582
1.4,0.1936,-610
1.4,0.1872,-554
1.4,0.0976,-474
1.4,0.1936,-562
1.4,0.2096,-666
1.4,0.056,-606
1.4,0.3792,-606
1.4,0.1328,-570
1.4,0.2768,-538
1.4,0.248,-514
1.4,0.104,-602
1.4,0.1296,-538
1.4,0.1264,-674
1.4,0.0176,-494
1.4,0.0592,-534
1.4,0.1296,-558
1.4,0.0944,-526
1.4,0.1168,-550
1.4,0.1872,-590
1.4,0.0272,-562
1.4,0.1616,-586
1.4,0.0848,-626
1.4,0.3184,-558
1.4,0.008,-502
1.4,0.04,-654
1.4,0.0688,-534
1.4,0.0272,-602
1.4,0.0688,-518
1.4,0.0016,-546
1.4,0.04,-502
1.4,0.0144,-538
1.4,0.0592,-602
1.4,0.1616,-554
1.4,0.328,-566
1.4,0.2768,-514
1.4,0.1968,-642
1.4,0.2192,-490
1.4,0.0464,-550
1.4,0.1456,-514
1.4,0.3952,-598
1.4,0.2736,-590
1.4,0.1744,-518
1.4,0.0144,-566
1.4,0.248,-546
1.4,0.1872,-542
1.4,0.28,-630
1.4,0.3152,-594
1.4,0.1456,-586
1.4,0.3024,-582
1.4,0.2896,-570
1.4,0.0944,-530
1.4,0.0208,-514
1.4,0.0144,-578
1.4,0.4944,-702
1.4,0.0624,-650
1.4,0.0464,-634
1.4,0.0752,-606
1.4,0.3376,-614
1.4,0.136,-534
1.4,0.1904,-526
1.4,0.1392,-538
1.4,0.1712,-646
1.4,0.2576,-538
1.4,0.1776,-574
1.4,0.0048,-574
1.4,0.312,-622
1.4,0.0112,-598
1.4,0.216,-570
1.4,0.1296,-550
1.4,0.0432,-626
1.4,0.0656,-670
1.4,0.1488,-594
1.4,0.1456,-542
1.4,0.1488,-606
1.4,0.1296,-598
1.4,0.0816,-574
1.4,0.04,-610
1.4,0.1008,-554
1.4,0.0624,-618
1.4,0.1008,-526
1.4,0.2352,-666
1.4,0.0432,-502
1.4,0.5232,-682
1.4,0.0912,-598
1.4,0.0496,-610
1.4,0.0592,-578
1.4,0.0592,-598
1.4,0.0336,-610
1.4,0.28,-582
1.4,0.0112,-594
1.4,0.0464,-530
1.4,0.0624,-558
1.4,0.0944,-514
1.4,0.1936,-554
1.4,0.312,-590
1.4,0.3664,-626
1.4,0.056,-510
1.4,0.1456,-566
1.4,0.2416,-558
1.4,0.0976,-534
1.4,0.1776,-582
1.4,0.0368,-518
1.4,0.28,-550
1.4,0.3184,-602
1.4,0.1104,-546
1.4,0.1904,-618
1.4,0.2064,-546
1.4,0.1968,-574
1.4,0.1264,-642
1.4,0.1232,-494
1.4,0.1712,-582
1.4,0.1328,-502
1.4,0.1392,-506
1.4,0.056,-546
1.4,0.0592,-474
1.4,0.2416,-526
1.4,0.1648,-606
1.4,0.248,-542
1.4,0.1872,-530
1.4,0.1648,-582
1.4,0.344,-622
1.4,0.0304,-566
1.4,0.168,-674
1.4,0.0016,-490
1.4,0.264,-570
1.4,0.0144,-602
1.4,0.1968,-570
1.4,0.1232,-574
1.4,0.0816,-534
1.4,0.0688,-546
1.4,0.5232,-606
1.4,0.3056,-606
1.4,0.008,-542
1.4,0.088,-526
1.4,0.2928,-622
1.4,0.4592,-670
1.4,0.0176,-582
1.4,0.2608,-578
1.4,0.1232,-534
1.4,0.3024,-530
1.4,0.0752,-502
1.4,0.0176,-510
1.4,0.1552,-662
1.4,0.04,-654
1.4,0.1616,-554
1.4,0.216,-530
1.4,0.0176,-578
1.4,0.0976,-594
1.4,0.1872,-690
1.4,0.0784,-458
1.4,0.152,-598
1.4,0.3248,-626
1.4,0.1488,-582
1.4,0.2448,-542
1.4,0.0144,-590
1.4,0.1488,-610
1.4,0.3216,-642
1.4,0.056,-510
1.4,0.1744,-590
1.4,0.0656,-646
1.4,0.0272,-586
1.4,0.3312,-550
1.4,0.0048,-506
1.4,0.0848,-558
1.4,0.0336,-494
1.4,0.1456,-590
1.4,0.0656,-550
1.4,0.0816,-522
1.4,0.4208,-658
1.4,0.264,-614
1.4,0.008,-598
1.4,0.1584,-578
1.4,0.088,-522
1.4,0.1168,-582
1.4,0.1936,-562
1.4,0.0848,-598
1.4,0.1168,-522
1.4,0.1136,-534
1.4,0.0432,-530
1.4,0.2896,-622
1.4,0.1424,-546
1.4,0.0496,-598
1.4,0.0496,-542
1.4,0.152,-578
1.4,0.04,-630
1.4,0.008,-614
1.4,0.1296,-542
1.4,0.1616,-574
1.4,0.0784,-562
1.4,0.0912,-658
1.4,0.0432,-550
1.4,0.2288,-610
1.4,0.0272,-502
1.4,0.2832,-574
1.4,0.168,-534
1.4,0.3504,-678
1.4,0.2128,-522
1.4,0.0656,-578
1.4,0.0208,-610
1.4,0.0176,-498
1.4,0.1136,-606
1.4,0.1296,-550
1.4,0.2032,-586
1.4,0.0272,-614
1.4,0.072,-626
1.4,0.0816,-558
1.4,0.1072,-610
1.4,0.1648,-646
1.4,0.0528,-634
1.4,0.1168,-558
1.4,0.008,-610
1.4,0.0848,-566
1.4,0.0016,-606
1.4,0.0624,-530
1.4,0.0208,-566
1.4,0.0688,-558
1.4,0.2768,-522
1.4,0.1488,-582
1.4,0.0784,-546
1.4,0.2512,-578
1.4,0.1904,-530
1.4,0.2256,-570
1.4,0.0464,-570
1.4,0.3696,-638
1.4,0.008,-550
1.4,0.1008,-490
1.4,0.056,-534
1.4,0.1744,-486
1.4,0.344,-650
1.4,0.1968,-578
1.4,0.1616,-526
1.4,0.0848,-554
1.4,0.008,-586
1.4,0.3152,-490
1.4,0.0304,-482
1.4,0.0688,-570
1.4,0.392,-678
1.4,0.0144,-558
1.4,0.1488,-678
1.4,0.0016,-554
1.4,0.0848,-606
1.4,0.0208,-478
1.4,0.0688,-550
1.4,0.2096,-546
1.4,0.024,-414
1.4,0.0144,-566
1.4,0.264,-602
1.4,0.0336,-594
1.4,0.2256,-566
1.4,0.1648,-530
1.4,0.0464,-506
1.4,0.0048,-582
1.4,0.0528,-530
1.4,0.0752,-594
1.4,0.0528,-602
1.4,0.1168,-534
1.4,0.1168,-418
1.4,0.1008,-466
1.4,0.0688,-554
1.4,0.232,-534
1.4,0.1744,-570
1.4,0.1904,-518
1.4,0.2128,-618
1.4,0.1552,-618
1.4,0.296,-586
1.4,0.1008,-630
1.4,0.0048,-606
1.4,0.3088,-618
1.4,0.1648,-506
1.4,0.2256,-482
1.4,0.216,-534
1.4,0.3472,-478
1.4,0.1872,-566
1.4,0.2512,-530
1.4,0.0464,-618
1.4,0.1776,-678
1.4,0.344,-614
1.4,0.2096,-622
1.4,0.088,-566
1.4,0.0816,-566
1.4,0.12,-542
1.4,0.1008,-626
1.4,0.072,-502
1.4,0.3216,-614
1.4,0.0208,-614
1.4,0.056,-554
1.4,0.312,-662
1.4,0.2704,-554
1.4,0.088,-538
1.4,0.0976,-522
1.4,0.0048,-554
1.4,0.0752,-494
1.4,0.0848,-558
1.4,0.1456,-514
1.4,0.04,-546
1.4,0.2224,-586
1.4,0.1232,-546
1.4,0.0848,-614
1.4,0.1488,-542
1.4,0.0016,-638
1.4,0.0208,-566
1.4,0.1744,-670
1.4,0.0944,-506
1.4,0.0048,-566
1.4,0.1456,-534
1.4,0.28,-578
1.4,0.2352,-610
1.4,0.0208,-522
1.4,0.0656,-570
1.4,0.072,-666
1.4,0.152,-482
1.4,0.0144,-534
1.4,0.1648,-594
1.4,0.3088,-650
1.4,0.0496,-614
1.4,0.024,-518
1.4,0.0432,-510
1.4,0.0304,-586
1.4,0.2448,-602
1.4,0.088,-482
1.4,0.0336,-554
1.4,0.1616,-602
1.4,0.0496,-566
1.4,0.2,-610
1.4,0.2864,-694
1.4,0.0464,-494
1.4,0.2064,-522
1.4,0.184,-594
1.4,0.1936,-546
1.4,0.2256,-534
1.4,0.312,-566
1.4,0.168,-598
1.4,0.0912,-582
1.4,0.1264,-566
1.4,0.1296,-546
1.4,0.0528,-562
1.4,0.3024,-602
1.4,0.0144,-554
1.4,0.0304,-554
1.4,0.056,-554
1.4,0.0368,-546
1.4,0.0464,-598
1.4,0.0688,-550
1.4,0.1232,-566
1.4,0.1392,-542
1.4,0.0272,-474
1.4,0.0016,-562
1.4,0.216,-578
1.4,0.2256,-646
1.4,0.1136,-534
1.4,0.04,-586
1.4,0.0496,-558
1.4,0.152,-530
1.4,0.1072,-578
1.4,0.0368,-602
1.4,0.2064,-562
1.4,0.1904,-566
1.4,0.0144,-534
1.4,0.2736,-550
1.4,0.04,-570
1.4,0.0656,-638
1.4,0.1168,-614
1.4,0.2128,-614
1.4,0.2448,-586
1.4,0.0976,-554
1.4,0.0304,-486
1.4,0.2704,-574
1.4,0.0592,-602
1.4,0.1744,-566
1.4,0.184,-586
1.4,0.1776,-458
1.4,0.2128,-594
1.4,0.1104,-550
1.4,0.1616,-566
1.4,0.0368,-538
1.4,0.1104,-566
1.4,0.0848,-542
1.4,0.2096,-662
1.4,0.1488,-562
1.4,0.2352,-650
1.4,0.072,-642
1.4,0.232,-582
1.4,0.0976,-586
1.4,0.024,-558
1.4,0.0048,-610
1.4,0.1712,-630
1.4,0.3184,-542
1.4,0.1392,-586
1.4,0.1488,-566
1.4,0.056,-574
1.4,0.056,-538
1.4,0.0432,-494
1.4,0.1232,-602
1.4,0.1232,-582
1.4,0.1392,-622
1.4,0.2032,-506
1.4,0.0048,-526
1.4,0.2352,-618
1.4,0.008,-614
1.4,0.0848,-534
1.4,0.024,-622
1.4,0.3216,-666
1.4,0.0784,-578
1.4,0.0464,-586
1.4,0.1104,-594
1.4,0.1936,-598
1.4,0.2736,-610
1.4,0.1616,-518
1.4,0.1008,-578
1.4,0.1392,-466
1.4,0.1136,-538
1.4,0.056,-506
1.4,0.1904,-578
1.4,0.0144,-538
1.4,0.0784,-618
1.4,0.2,-578
1.4,0.184,-574
1.4,0.0592,-518
1.4,0.2,-626
1.4,0.0368,-554
1.4,0.2352,-598
1.4,0.1456,-574
1.4,0.0784,-550
1.4,0.184,-622
1.4,0.1744,-626
1.4,0.4016,-630
1.4,0.3088,-566
1.4,0.216,-574
1.4,0.264,-562
1.4,0.024,-538
1.4,0.1264,-518
1.4,0.0048,-614
1.4,0.0016,-574
1.4,0.0528,-570
1.4,0.0496,-530
1.4,0.0272,-602
1.4,0.0976,-578
1.4,0.2512,-546
1.4,0.0304,-546
1.4,0.168,-606
1.4,0.3056,-510
1.4,0.0144,-638
1.4,0.312,-654
1.4,0.0496,-534
1.4,0.0816,-494
1.4,0.1232,-626
1.4,0.0976,-582
1.4,0.1488,-610
1.4,0.4976,-658
1.4,0.0944,-546
1.4,0.1968,-538
1.4,0.136,-566
1.4,0.28,-614
1.4,0.0976,-554
1.4,0.184,-582
1.4,0.0048,-510
1.4,0.216,-570
1.4,0.0912,-570
1.4,0.0688,-606
1.4,0.1584,-642
1.4,0.1264,-498
1.4,0.2032,-550
1.4,0.2704,-686
1.4,0.1392,-586
1.4,0.152,-618
1.4,0.0912,-478
1.4,0.0464,-550
1.4,0.0528,-518
1.4,0.1488,-566
1.4,0.0848,-510
1.4,0.0464,-522
1.4,0.0304,-502
1.4,0.4304,-634
1.4,0.4176,-638
1.4,0.0688,-514
1.4,0.0464,-518
1.4,0.1552,-622
1.4,0.0656,-546
1.4,0.152,-582
1.4,0.0208,-614
1.4,0.0976,-586
1.4,0.0656,-622
1.4,0.3088,-570
1.4,0.2032,-610
1.4,0.2544,-482
1.4,0.0336,-482
1.4,0.008,-522
1.4,0.0368,-610
1.4,0.3888,-626
1.4,0.2096,-626
1.4,0.104,-506
1.4,0.296,-622
1.4,0.1328,-586
1.4,0.0176,-662
1.4,0.1456,-542
1.4,0.072,-562
1.4,0.152,-610
1.4,0.088,-554
1.4,0.0272,-498
1.4,0.008,-570
1.4,0.3056,-690
1.4,0.1712,-562
1.4,0.1904,-494
1.4,0.0496,-574
1.4,0.0592,-586
1.4,0.2448,-558
1.4,0.0752,-594
1.4,0.0816,-650
1.4,0.0624,-522
1.4,0.0112,-602
1.4,0.0816,-554
1.4,0.008,-522
1.4,0.024,-514
1.4,0.3312,-582
1.4,0.2992,-594
1.4,0.3952,-634
1.4,0.0016,-550
1.4,0.2288,-582
1.4,0.1072,-542
1.4,0.0368,-510
1.4,0.104,-510
1.4,0.136,-622
1.4,0.2448,-586
1.4,0.0016,-498
1.4,0.1456,-506
1.4,0.2672,-590
1.4,0.1872,-494
1.4,0.0464,-570
1.4,0.2192,-562
1.4,0.0784,-606
1.4,0.0208,-566
1.4,0.1296,-586
1.4,0.056,-474
1.4,0.072,-594
1.4,0.1712,-594
1.4,0.0912,-518
1.4,0.0688,-550
1.4,0.1072,-582
1.4,0.168,-506
1.4,0.0272,-538
1.4,0.0144,-566
1.4,0.1936,-554
1.4,0.0432,-562
1.4,0.0304,-626
1.4,0.168,-566
1.4,0.1648,-618
1.4,0.0144,-582
1.4,0.088,-526
1.4,0.184,-610
1.4,0.1648,-618
1.4,0.1232,-542
1.4,0.0528,-554
1.4,0.2032,-574
1.4,0.2864,-626
1.4,0.0624,-574
1.4,0.1744,-582
1.4,0.104,-474
1.4,0.12,-562
1.4,0.0176,-670
1.4,0.0304,-574
1.4,0.0656,-538
1.4,0.296,-570
1.4,0.0368,-534
1.4,0.136,-514
1.4,0.0048,-490
1.4,0.1616,-554
1.4,0.0528,-546
1.4,0.1744,-514
1.4,0.0656,-550
1.4,0.0752,-606
1.4,0.0976,-558
1.4,0.0208,-574
1.4,0.3472,-586
1.4,0.056,-646
1.4,0.168,-526
1.4,0.0496,-502
1.4,0.2,-606
1.4,0.1776,-554
1.4,0.2864,-674
1.4,0.088,-526
1.4,0.0752,-574
1.4,0.216,-606
1.4,0.0272,-594
1.4,0.2608,-530
1.4,0.1808,-614
1.4,0.0688,-542
1.4,0.024,-518
1.4,0.2,-522
1.4,0.0976,-630
1.4,0.2288,-634
1.4,0.2096,-626
1.4,0.2864,-606
1.4,0.3056,-574
1.4,0.1552,-614
1.4,0.1904,-626
1.4,0.2608,-470
1.4,0.1424,-546
1.4,0.1616,-590
1.4,0.0336,-554
1.4,0.2096,-698
1.4,0.0592,-498
1.4,0.2544,-550
1.4,0.1776,-618
1.4,0.0496,-534
1.4,0.4848,-638
1.4,0.1616,-494
1.4,0.0208,-542
1.4,0.3376,-542
1.4,0.2864,-562
1.4,0.424,-586
1.4,0.1456,-478
1.4,0.2192,-506
1.4,0.0304,-438
1.4,0.0368,-542
1.4,0.1232,-534
1.4,0.0912,-534
1.4,0.2384,-522
1.4,0.152,-566
1.4,0.0592,-594
1.4,0.2256,-622
1.4,0.1648,-550
1.4,0.1328,-542
1.4,0.0048,-526
1.4,0.1296,-598
1.4,0.168,-614
1.4,0.0592,-638
1.4,0.0432,-522
1.4,0.0496,-510
1.4,0.136,-554
1.4,0.2064,-534
1.4,0.1904,-558
1.4,0.2544,-598
1.4,0.1936,-582
1.4,0.104,-558
1.4,0.2128,-546
1.4,0.0048,-550
1.4,0.0784,-518
1.4,0.184,-542
1.4,0.1168,-474
1.4,0.3344,-626
1.4,0.0336,-590
1.4,0.1584,-558
1.4,0.0016,-594
1.4,0.2576,-606
1.4,0.4208,-654
1.4,0.1744,-522
1.4,0.0528,-546
1.4,0.024,-542
1.4,0.0592,-574
1.4,0.0272,-594
1.4,0.1168,-550
1.4,0.0432,-554
1.4,0.0464,-490
1.4,0.1648,-542
1.4,0.072,-606
1.4,0.1008,-538
1.4,0.008,-554
1.4,0.1936,-574
1.4,0.152,-590
1.4,0.0496,-590
1.4,0.104,-542
1.4,0.1296,-490
1.4,0.2096,-590
1.4,0.296,-606
1.4,0.1936,-610
1.4,0.056,-526
1.4,0.3056,-550
1.4,0.1616,-478
1.4,0.008,-574
1.4,0.0144,-546
1.4,0.3568,-658
1.4,0.0752,-474
1.4,0.12,-586
1.4,0.0112,-574
1.4,0.184,-614
1.4,0.2032,-598
1.4,0.0496,-514
1.4,0.0176,-562
1.4,0.2768,-602
1.4,0.0176,-506
1.4,0.12,-530
1.4,0.0528,-530
1.4,0.3696,-518
1.4,0.2544,-566
1.4,0.0304,-578
1.4,0.3216,-614
1.4,0.0912,-582
1.4,0.1456,-550
1.4,0.0848,-586
1.4,0.024,-506
1.4,0.0336,-458
1.4,0.024,-586
1.4,0.1776,-582
1.4,0.1904,-458
1.4,0.1808,-506
1.4,0.0272,-494
1.4,0.0464,-550
1.4,0.168,-510
1.4,0.456,-674
1.4,0.0624,-606
1.4,0.1744,-574
1.4,0.056,-550
1.4,0.2064,-586
1.4,0.216,-638
1.4,0.0496,-578
1.4,0.2,-522
1.4,0.1488,-526
1.4,0.0496,-554
1.4,0.1808,-590
1.4,0.2416,-530
1.4,0.1776,-506
1.4,0.056,-522
1.4,0.088,-450
1.4,0.1328,-538
1.4,0.2224,-558
1.4,0.0784,-478
1.4,0.2576,-566
1.4,0.1232,-542
1.4,0.1584,-562
1.4,0.0016,-566
1.4,0.0592,-594
1.4,0.0368,-546
1.4,0.2736,-606
1.4,0.1424,-582
1.4,0.1744,-570
1.4,0.0048,-598
1.4,0.0528,-506
1.4,0.0112,-546
1.4,0.0016,-554
1.4,0.12,-526
1.4,0.2832,-462
1.4,0.0656,-546
1.4,0.0176,-570
1.4,0.1168,-502
1.4,0.2256,-546
1.4,0.072,-534
1.4,0.0528,-502
1.4,0.0464,-446
1.4,0.0592,-554
1.4,0.1392,-570
1.4,0.1328,-550
1.4,0.2896,-558
1.4,0.1264,-578
1.4,0.1008,-610
1.4,0.0976,-590
1.4,0.1392,-506
1.4,0.2224,-598
1.4,0.0976,-586
1.4,0.0784,-574
1.4,0.0528,-594
1.4,0.232,-542
1.4,0.3568,-574
1.4,0.3952,-622
1.4,0.3216,-586
1.4,0.088,-542
1.4,0.2608,-562
1.4,0.0784,-578
1.4,0.1008,-586
1.4,0.0176,-634
1.4,0.024,-530
1.4,0.104,-562
1.4,0.0528,-514
1.4,0.1264,-534
1.4,0.0368,-594
1.4,0.1968,-634
1.4,0.0784,-514
1.4,0.2672,-586
1.4,0.0976,-602
1.4,0.0656,-534
1.4,0.28,-558
1.4,0.2128,-606
1.4,0.0304,-602
1.4,0.0144,-714
1.4,0.088,-622
1.4,0.0112,-554
1.4,0.0848,-566
1.4,0.024,-510
1.4,0.008,-646
1.4,0.1872,-638
1.4,0.2896,-622
1.4,0.024,-474
1.4,0.0624,-630
1.4,0.1456,-506
1.4,0.2,-582
1.4,0.1072,-534
1.4,0.0048,-630
1.4,0.2128,-654
1.4,0.088,-614
1.4,0.0848,-522
1.4,0.2352,-582
1.4,0.0976,-574
1.4,0.0912,-498
1.4,0.0368,-606
1.4,0.2448,-478
1.4,0.248,-574
1.4,0.216,-582
1.4,0.1456,-666
1.4,0.056,-602
1.4,0.0208,-538
1.4,0.1392,-618
1.4,0.0016,-490
1.4,0.1616,-598
1.4,0.3376,-630
1.4,0.0656,-590
1.4,0.376,-618
1.4,0.0144,-574
1.4,0.1776,-534
1.4,0.2224,-554
1.4,0.2704,-590
1.4,0.168,-510
1.4,0.3696,-646
1.4,0.0272,-542
1.4,0.3184,-638
1.4,0.0208,-598
1.4,0.1904,-582
1.4,0.136,-554
1.4,0.136,-538
1.4,0.0976,-502
1.4,0.1936,-594
1.4,0.296,-634
1.4,0.104,-498
1.4,0.1456,-602
1.4,0.1328,-506
1.4,0.1744,-594
1.4,0.0496,-430
1.4,0.12,-570
1.4,0.1456,-590
1.4,0.3344,-618
1.4,0.328,-638
1.4,0.2128,-542
1.4,0.0176,-482
1.4,0.2704,-502
1.4,0.0336,-574
1.4,0.0048,-614
1.4,0.1488,-582
1.4,0.1808,-626
1.4,0.0848,-594
1.4,0.104,-562
1.4,0.0912,-502
1.4,0.1904,-558
1.4,0.024,-518
1.4,0.1552,-590
1.4,0.2,-510
1.4,0.1712,-578
1.4,0.0272,-478
1.4,0.1072,-514
1.4,0.0528,-582
1.4,0.1456,-566
1.4,0.2544,-574
1.4,0.088,-582
1.4,0.2288,-570
1.4,0.1008,-574
1.4,0.1264,-586
1.4,0.0688,-490
1.4,0.0464,-622
1.4,0.0464,-566
1.4,0.216,-602
1.4,0.3024,-574
1.4,0.04,-526
1.4,0.0432,-594
1.4,0.0048,-586
1.4,0.1936,-586
1.4,0.1072,-586
1.4,0.0432,-590
1.4,0.0656,-526
1.4,0.3888,-690
1.4,0.0176,-594
1.4,0.1872,-618
1.4,0.1552,-566
1.4,0.0208,-590
1.4,0.168,-522
1.4,0.1488,-562
1.4,0.0016,-546
1.4,0.0944,-578
1.4,0.0848,-470
1.4,0.0496,-582
1.4,0.12,-638
1.4,0.0304,-514
1.4,0.0336,-666
1.4,0.3216,-662
1.4,0.0912,-502
1.4,0.1104,-478
1.4,0.0624,-570
1.4,0.2256,-502
1.4,0.1552,-538
1.4,0.2896,-666
1.4,0.104,-558
1.4,0.3216,-566
1.4,0.3472,-562
1.4,0.2512,-518
1.4,0.0624,-538
1.4,0.2864,-578
1.4,0.1008,-614
1.4,0.2928,-534
1.4,0.1008,-618
1.4,0.0432,-498
1.4,0.1136,-526
1.4,0.0976,-530
1.4,0.056,-546
1.4,0.0016,-554
1.4,0.2256,-654
1.4,0.2224,-538
1.4,0.0528,-602
1.4,0.0464,-562
1.4,0.0112,-566
1.4,0.2096,-610
1.4,0.0016,-530
1.4,0.0464,-494
1.4,0.264,-578
1.4,0.072,-590
1.4,0.1744,-618
1.4,0.3312,-618
1.4,0.008,-638
1.4,0.2864,-638
1.4,0.1072,-614
1.4,0.1456,-682
1.4,0.2256,-606
1.4,0.0656,-614
1.4,0.1424,-470
1.4,0.1104,-538
1.4,0.1008,-522
1.4,0.0592,-530
1.4,0.1488,-546
1.4,0.136,-522
1.4,0.1968,-518
1.4,0.0496,-522
1.4,0.1424,-694
1.4,0.0496,-598
1.4,0.1616,-554
1.4,0.3408,-554
1.4,0.3312,-642
1.4,0.0336,-546
1.4,0.0656,-466
1.4,0.0816,-626
1.4,0.1616,-530
1.4,0.0336,-582
1.4,0.008,-558
1.4,0.1424,-582
1.4,0.0688,-562
1.4,0.0176,-606
1.4,0.088,-562
1.4,0.1296,-546
1.4,0.104,-566
1.4,0.2736,-598
1.4,0.0784,-622
1.4,0.1808,-622
1.4,0.152,-558
1.4,0.1296,-722
1.4,0.0432,-462
1.4,0.024,-450
1.4,0.0048,-666
1.4,0.024,-678
1.4,0.3344,-654
1.4,0.104,-610
1.4,0.12,-562
1.4,0.0848,-522
1.4,0.2416,-582
1.4,0.3568,-594
1.4,0.184,-542
1.4,0.104,-510
1.4,0.168,-554
1.4,0.1392,-518
1.4,0.0848,-614
1.4,0.0464,-550
1.4,0.0592,-546
1.4,0.1232,-510
1.4,0.3408,-542
1.4,0.2096,-582
1.4,0.2832,-538
1.4,0.1648,-558
1.4,0.1456,-590
1.4,0.1584,-542
1.4,0.1232,-542
1.4,0.136,-570
1.4,0.2768,-602
1.4,0.0432,-554
1.4,0.2224,-670
1.4,0.2192,-602
1.4,0.1584,-546
1.4,0.1712,-598
1.4,0.2576,-642
1.4,0.2416,-650
1.4,0.1392,-566
1.4,0.1392,-582
1.4,0.3312,-562
1.4,0.0272,-538
1.4,0.3472,-622
1.4,0.0304,-498
1.4,0.1968,-678
1.4,0.0592,-606
1.4,0.3344,-602
1.4,0.1456,-614
1.4,0.1008,-542
1.4,0.1072,-566
1.4,0.1776,-562
1.4,0.3856,-646
1.4,0.0688,-570
1.4,0.104,-642
1.4,0.1008,-514
1.4,0.0176,-494
1.4,0.1264,-538
1.4,0.056,-546
1.4,0.328,-654
1.4,0.1776,-570
1.4,0.12,-578
1.4,0.2224,-606
1.4,0.0048,-518
1.4,0.2032,-594
1.4,0.3216,-578
1.4,0.0528,-614
1.4,0.1936,-546
